# macroscopic dielectric function
# with local fields
# testparticle  Adiabatic lda (TDLDA
# npwmat =   59  npwwfn =  283  nbands =    8  lomo =    2  nkibz = 1024  nkbz = 1024
# energy range   0.00 12.00 [eV]
# lorentzian broadening =   0.0750 [eV]
# dsf factor     0.000000 [a.u.] 
# unit cell volume    266.630737 [a.u.] 
# G = (  0,  0,  0) [r.l.u.]
# G = ( 0.000000, 0.000000, 0.000000) [c.c.]
# G = ( 0.000000, 0.000000, 0.000000) [c.c. units of 2pi/a =  0.614974 a.u.]
# q -> 0 average over the three cartesian directions
# omega       eps_1       eps_2
   0.0000000  0.1315E+02 -0.2161E-04
   0.0100000  0.1315E+02  0.1284E-02
   0.0200000  0.1315E+02  0.2646E-02
   0.0300000  0.1315E+02  0.3944E-02
   0.0400000  0.1315E+02  0.5240E-02
   0.0500000  0.1315E+02  0.6557E-02
   0.0600000  0.1316E+02  0.7872E-02
   0.0700000  0.1316E+02  0.9184E-02
   0.0800000  0.1316E+02  0.1049E-01
   0.0900000  0.1316E+02  0.1183E-01
   0.1000000  0.1316E+02  0.1315E-01
   0.1100000  0.1316E+02  0.1447E-01
   0.1200000  0.1317E+02  0.1577E-01
   0.1300000  0.1317E+02  0.1710E-01
   0.1400000  0.1317E+02  0.1843E-01
   0.1500000  0.1317E+02  0.1973E-01
   0.1600000  0.1318E+02  0.2109E-01
   0.1700000  0.1318E+02  0.2241E-01
   0.1800000  0.1318E+02  0.2375E-01
   0.1900000  0.1318E+02  0.2509E-01
   0.2000000  0.1319E+02  0.2641E-01
   0.2100000  0.1319E+02  0.2774E-01
   0.2200000  0.1320E+02  0.2911E-01
   0.2300000  0.1320E+02  0.3045E-01
   0.2400000  0.1320E+02  0.3179E-01
   0.2500000  0.1321E+02  0.3313E-01
   0.2600000  0.1321E+02  0.3450E-01
   0.2700000  0.1322E+02  0.3586E-01
   0.2800000  0.1322E+02  0.3722E-01
   0.2900000  0.1323E+02  0.3859E-01
   0.3000000  0.1323E+02  0.3995E-01
   0.3100000  0.1324E+02  0.4135E-01
   0.3200000  0.1324E+02  0.4272E-01
   0.3300000  0.1325E+02  0.4407E-01
   0.3400000  0.1325E+02  0.4548E-01
   0.3500000  0.1326E+02  0.4692E-01
   0.3600000  0.1327E+02  0.4828E-01
   0.3700000  0.1327E+02  0.4967E-01
   0.3800000  0.1328E+02  0.5107E-01
   0.3900000  0.1329E+02  0.5251E-01
   0.4000000  0.1329E+02  0.5394E-01
   0.4100000  0.1330E+02  0.5536E-01
   0.4200000  0.1331E+02  0.5677E-01
   0.4300000  0.1332E+02  0.5823E-01
   0.4400000  0.1332E+02  0.5965E-01
   0.4500000  0.1333E+02  0.6110E-01
   0.4600000  0.1334E+02  0.6253E-01
   0.4700000  0.1335E+02  0.6403E-01
   0.4800000  0.1336E+02  0.6550E-01
   0.4900000  0.1337E+02  0.6696E-01
   0.5000000  0.1338E+02  0.6846E-01
   0.5100000  0.1338E+02  0.6995E-01
   0.5200000  0.1339E+02  0.7147E-01
   0.5300000  0.1340E+02  0.7296E-01
   0.5400000  0.1341E+02  0.7448E-01
   0.5500000  0.1342E+02  0.7598E-01
   0.5599999  0.1343E+02  0.7751E-01
   0.5700000  0.1344E+02  0.7910E-01
   0.5800000  0.1345E+02  0.8064E-01
   0.5900000  0.1347E+02  0.8218E-01
   0.6000000  0.1348E+02  0.8375E-01
   0.6100000  0.1349E+02  0.8536E-01
   0.6200000  0.1350E+02  0.8692E-01
   0.6300000  0.1351E+02  0.8854E-01
   0.6400000  0.1352E+02  0.9013E-01
   0.6500000  0.1354E+02  0.9175E-01
   0.6600000  0.1355E+02  0.9337E-01
   0.6700000  0.1356E+02  0.9503E-01
   0.6800000  0.1357E+02  0.9668E-01
   0.6900000  0.1359E+02  0.9832E-01
   0.7000000  0.1360E+02  0.1000E+00
   0.7100000  0.1361E+02  0.1017E+00
   0.7200000  0.1363E+02  0.1034E+00
   0.7300000  0.1364E+02  0.1051E+00
   0.7399999  0.1365E+02  0.1068E+00
   0.7500000  0.1367E+02  0.1085E+00
   0.7600000  0.1368E+02  0.1103E+00
   0.7700000  0.1370E+02  0.1121E+00
   0.7800000  0.1371E+02  0.1138E+00
   0.7900000  0.1373E+02  0.1156E+00
   0.8000000  0.1374E+02  0.1175E+00
   0.8100000  0.1376E+02  0.1193E+00
   0.8200000  0.1378E+02  0.1211E+00
   0.8300000  0.1379E+02  0.1229E+00
   0.8400000  0.1381E+02  0.1248E+00
   0.8500000  0.1382E+02  0.1267E+00
   0.8600000  0.1384E+02  0.1286E+00
   0.8700000  0.1386E+02  0.1305E+00
   0.8800000  0.1388E+02  0.1324E+00
   0.8899999  0.1389E+02  0.1344E+00
   0.9000000  0.1391E+02  0.1363E+00
   0.9100000  0.1393E+02  0.1383E+00
   0.9200000  0.1395E+02  0.1403E+00
   0.9299999  0.1397E+02  0.1423E+00
   0.9400001  0.1399E+02  0.1444E+00
   0.9500000  0.1401E+02  0.1464E+00
   0.9600000  0.1403E+02  0.1485E+00
   0.9700000  0.1405E+02  0.1506E+00
   0.9800000  0.1407E+02  0.1527E+00
   0.9900000  0.1409E+02  0.1549E+00
   1.0000000  0.1411E+02  0.1570E+00
   1.0100000  0.1413E+02  0.1592E+00
   1.0200000  0.1415E+02  0.1614E+00
   1.0300001  0.1417E+02  0.1636E+00
   1.0400000  0.1419E+02  0.1659E+00
   1.0500000  0.1421E+02  0.1682E+00
   1.0599999  0.1424E+02  0.1705E+00
   1.0699999  0.1426E+02  0.1728E+00
   1.0800000  0.1428E+02  0.1751E+00
   1.0900000  0.1431E+02  0.1775E+00
   1.1000000  0.1433E+02  0.1800E+00
   1.1100000  0.1435E+02  0.1823E+00
   1.1199999  0.1438E+02  0.1848E+00
   1.1300000  0.1440E+02  0.1873E+00
   1.1400000  0.1443E+02  0.1898E+00
   1.1500000  0.1445E+02  0.1923E+00
   1.1600000  0.1448E+02  0.1949E+00
   1.1700001  0.1451E+02  0.1976E+00
   1.1800001  0.1453E+02  0.2001E+00
   1.1899999  0.1456E+02  0.2028E+00
   1.1999999  0.1459E+02  0.2056E+00
   1.2099999  0.1461E+02  0.2083E+00
   1.2200000  0.1464E+02  0.2111E+00
   1.2300000  0.1467E+02  0.2138E+00
   1.2400000  0.1470E+02  0.2167E+00
   1.2500000  0.1473E+02  0.2196E+00
   1.2600000  0.1476E+02  0.2224E+00
   1.2700000  0.1479E+02  0.2254E+00
   1.2800000  0.1482E+02  0.2284E+00
   1.2900000  0.1485E+02  0.2314E+00
   1.3000000  0.1488E+02  0.2345E+00
   1.3100001  0.1491E+02  0.2376E+00
   1.3200001  0.1494E+02  0.2408E+00
   1.3299999  0.1497E+02  0.2440E+00
   1.3399999  0.1501E+02  0.2472E+00
   1.3500000  0.1504E+02  0.2505E+00
   1.3600000  0.1507E+02  0.2539E+00
   1.3700000  0.1511E+02  0.2572E+00
   1.3800000  0.1514E+02  0.2607E+00
   1.3900000  0.1518E+02  0.2642E+00
   1.4000000  0.1521E+02  0.2677E+00
   1.4100000  0.1525E+02  0.2713E+00
   1.4200000  0.1528E+02  0.2750E+00
   1.4299999  0.1532E+02  0.2787E+00
   1.4400001  0.1536E+02  0.2824E+00
   1.4500000  0.1540E+02  0.2862E+00
   1.4600000  0.1543E+02  0.2901E+00
   1.4700000  0.1547E+02  0.2940E+00
   1.4799999  0.1551E+02  0.2980E+00
   1.4900000  0.1555E+02  0.3021E+00
   1.5000000  0.1559E+02  0.3062E+00
   1.5100000  0.1563E+02  0.3104E+00
   1.5200000  0.1567E+02  0.3147E+00
   1.5300000  0.1572E+02  0.3191E+00
   1.5400001  0.1576E+02  0.3235E+00
   1.5500000  0.1580E+02  0.3279E+00
   1.5599999  0.1585E+02  0.3325E+00
   1.5699999  0.1589E+02  0.3372E+00
   1.5800000  0.1594E+02  0.3419E+00
   1.5900000  0.1598E+02  0.3467E+00
   1.6000000  0.1603E+02  0.3516E+00
   1.6100000  0.1607E+02  0.3566E+00
   1.6200000  0.1612E+02  0.3617E+00
   1.6300000  0.1617E+02  0.3669E+00
   1.6400000  0.1622E+02  0.3722E+00
   1.6500000  0.1627E+02  0.3775E+00
   1.6600000  0.1632E+02  0.3830E+00
   1.6700001  0.1637E+02  0.3886E+00
   1.6800001  0.1642E+02  0.3943E+00
   1.6899999  0.1648E+02  0.4001E+00
   1.6999999  0.1653E+02  0.4060E+00
   1.7100000  0.1658E+02  0.4120E+00
   1.7200000  0.1664E+02  0.4182E+00
   1.7300000  0.1669E+02  0.4245E+00
   1.7400000  0.1675E+02  0.4309E+00
   1.7500000  0.1681E+02  0.4374E+00
   1.7600000  0.1687E+02  0.4441E+00
   1.7699999  0.1693E+02  0.4510E+00
   1.7799999  0.1699E+02  0.4580E+00
   1.7900001  0.1705E+02  0.4651E+00
   1.8000001  0.1711E+02  0.4724E+00
   1.8100001  0.1717E+02  0.4799E+00
   1.8200001  0.1724E+02  0.4875E+00
   1.8300000  0.1730E+02  0.4954E+00
   1.8399999  0.1737E+02  0.5034E+00
   1.8499999  0.1744E+02  0.5116E+00
   1.8599999  0.1750E+02  0.5199E+00
   1.8699999  0.1757E+02  0.5285E+00
   1.8800001  0.1764E+02  0.5373E+00
   1.8900001  0.1771E+02  0.5464E+00
   1.9000000  0.1779E+02  0.5556E+00
   1.9100000  0.1786E+02  0.5650E+00
   1.9200000  0.1794E+02  0.5748E+00
   1.9299999  0.1801E+02  0.5848E+00
   1.9399999  0.1809E+02  0.5950E+00
   1.9499999  0.1817E+02  0.6056E+00
   1.9599999  0.1825E+02  0.6164E+00
   1.9700000  0.1833E+02  0.6274E+00
   1.9800000  0.1842E+02  0.6389E+00
   1.9900000  0.1850E+02  0.6507E+00
   2.0000000  0.1859E+02  0.6627E+00
   2.0100000  0.1868E+02  0.6752E+00
   2.0200000  0.1877E+02  0.6880E+00
   2.0300000  0.1886E+02  0.7012E+00
   2.0400000  0.1895E+02  0.7148E+00
   2.0500000  0.1905E+02  0.7289E+00
   2.0600002  0.1914E+02  0.7435E+00
   2.0700002  0.1924E+02  0.7583E+00
   2.0799999  0.1934E+02  0.7738E+00
   2.0899999  0.1945E+02  0.7898E+00
   2.0999999  0.1955E+02  0.8064E+00
   2.1099999  0.1966E+02  0.8234E+00
   2.1199999  0.1977E+02  0.8411E+00
   2.1299999  0.1988E+02  0.8594E+00
   2.1399999  0.1999E+02  0.8785E+00
   2.1500001  0.2011E+02  0.8981E+00
   2.1600001  0.2023E+02  0.9186E+00
   2.1700001  0.2035E+02  0.9399E+00
   2.1800001  0.2048E+02  0.9619E+00
   2.1900001  0.2060E+02  0.9849E+00
   2.2000000  0.2073E+02  0.1009E+01
   2.2100000  0.2087E+02  0.1034E+01
   2.2200000  0.2100E+02  0.1060E+01
   2.2300000  0.2114E+02  0.1087E+01
   2.2399998  0.2129E+02  0.1116E+01
   2.2500000  0.2144E+02  0.1145E+01
   2.2600000  0.2159E+02  0.1176E+01
   2.2700000  0.2174E+02  0.1209E+01
   2.2800000  0.2190E+02  0.1244E+01
   2.2900000  0.2206E+02  0.1280E+01
   2.3000000  0.2223E+02  0.1318E+01
   2.3099999  0.2240E+02  0.1358E+01
   2.3199999  0.2258E+02  0.1400E+01
   2.3299999  0.2277E+02  0.1445E+01
   2.3400002  0.2295E+02  0.1493E+01
   2.3500001  0.2315E+02  0.1543E+01
   2.3600001  0.2335E+02  0.1597E+01
   2.3699999  0.2355E+02  0.1655E+01
   2.3799999  0.2377E+02  0.1716E+01
   2.3899999  0.2399E+02  0.1782E+01
   2.3999999  0.2422E+02  0.1853E+01
   2.4099998  0.2445E+02  0.1929E+01
   2.4199998  0.2470E+02  0.2011E+01
   2.4300001  0.2495E+02  0.2101E+01
   2.4400001  0.2521E+02  0.2198E+01
   2.4500000  0.2548E+02  0.2305E+01
   2.4600000  0.2576E+02  0.2422E+01
   2.4700000  0.2605E+02  0.2550E+01
   2.4800000  0.2635E+02  0.2692E+01
   2.4900000  0.2666E+02  0.2848E+01
   2.5000000  0.2697E+02  0.3022E+01
   2.5100000  0.2730E+02  0.3213E+01
   2.5200000  0.2763E+02  0.3424E+01
   2.5300000  0.2796E+02  0.3656E+01
   2.5400000  0.2830E+02  0.3909E+01
   2.5500000  0.2863E+02  0.4184E+01
   2.5599999  0.2897E+02  0.4481E+01
   2.5699999  0.2931E+02  0.4802E+01
   2.5799999  0.2965E+02  0.5148E+01
   2.5899999  0.2998E+02  0.5520E+01
   2.5999999  0.3031E+02  0.5917E+01
   2.6100001  0.3063E+02  0.6339E+01
   2.6200001  0.3094E+02  0.6788E+01
   2.6300001  0.3125E+02  0.7266E+01
   2.6400001  0.3155E+02  0.7778E+01
   2.6500001  0.3185E+02  0.8331E+01
   2.6599998  0.3213E+02  0.8931E+01
   2.6699998  0.3238E+02  0.9585E+01
   2.6799998  0.3260E+02  0.1030E+02
   2.6899998  0.3275E+02  0.1106E+02
   2.7000000  0.3282E+02  0.1188E+02
   2.7100000  0.3280E+02  0.1272E+02
   2.7200000  0.3267E+02  0.1356E+02
   2.7300000  0.3244E+02  0.1436E+02
   2.7400000  0.3212E+02  0.1512E+02
   2.7500000  0.3173E+02  0.1582E+02
   2.7600000  0.3129E+02  0.1644E+02
   2.7700000  0.3081E+02  0.1699E+02
   2.7800000  0.3030E+02  0.1746E+02
   2.7900002  0.2978E+02  0.1786E+02
   2.8000000  0.2926E+02  0.1817E+02
   2.8099999  0.2875E+02  0.1839E+02
   2.8199999  0.2829E+02  0.1855E+02
   2.8299999  0.2788E+02  0.1865E+02
   2.8399999  0.2754E+02  0.1871E+02
   2.8499999  0.2726E+02  0.1877E+02
   2.8599999  0.2704E+02  0.1884E+02
   2.8699999  0.2687E+02  0.1893E+02
   2.8800001  0.2670E+02  0.1906E+02
   2.8900001  0.2654E+02  0.1922E+02
   2.9000001  0.2636E+02  0.1938E+02
   2.9100001  0.2617E+02  0.1954E+02
   2.9200001  0.2598E+02  0.1969E+02
   2.9300001  0.2579E+02  0.1983E+02
   2.9400001  0.2562E+02  0.1995E+02
   2.9499998  0.2546E+02  0.2007E+02
   2.9599998  0.2533E+02  0.2018E+02
   2.9699998  0.2521E+02  0.2030E+02
   2.9800000  0.2511E+02  0.2042E+02
   2.9900000  0.2503E+02  0.2057E+02
   3.0000000  0.2497E+02  0.2073E+02
   3.0100000  0.2492E+02  0.2093E+02
   3.0200000  0.2486E+02  0.2117E+02
   3.0300000  0.2477E+02  0.2144E+02
   3.0400000  0.2464E+02  0.2173E+02
   3.0500000  0.2448E+02  0.2202E+02
   3.0599999  0.2428E+02  0.2230E+02
   3.0700002  0.2406E+02  0.2256E+02
   3.0800002  0.2383E+02  0.2280E+02
   3.0899999  0.2359E+02  0.2302E+02
   3.0999999  0.2335E+02  0.2323E+02
   3.1099999  0.2310E+02  0.2343E+02
   3.1199999  0.2285E+02  0.2364E+02
   3.1299999  0.2257E+02  0.2384E+02
   3.1399999  0.2227E+02  0.2403E+02
   3.1499999  0.2194E+02  0.2419E+02
   3.1600001  0.2159E+02  0.2433E+02
   3.1700001  0.2121E+02  0.2441E+02
   3.1800001  0.2083E+02  0.2442E+02
   3.1900001  0.2048E+02  0.2437E+02
   3.2000000  0.2016E+02  0.2427E+02
   3.2100000  0.1991E+02  0.2412E+02
   3.2200000  0.1972E+02  0.2395E+02
   3.2300000  0.1961E+02  0.2379E+02
   3.2400000  0.1955E+02  0.2365E+02
   3.2500000  0.1953E+02  0.2354E+02
   3.2600000  0.1953E+02  0.2348E+02
   3.2700000  0.1953E+02  0.2345E+02
   3.2800000  0.1952E+02  0.2343E+02
   3.2900000  0.1950E+02  0.2341E+02
   3.3000000  0.1948E+02  0.2337E+02
   3.3099999  0.1949E+02  0.2330E+02
   3.3199999  0.1954E+02  0.2321E+02
   3.3299999  0.1964E+02  0.2312E+02
   3.3400002  0.1981E+02  0.2304E+02
   3.3500001  0.2004E+02  0.2300E+02
   3.3600001  0.2032E+02  0.2302E+02
   3.3700001  0.2063E+02  0.2310E+02
   3.3799999  0.2095E+02  0.2324E+02
   3.3899999  0.2128E+02  0.2344E+02
   3.3999999  0.2160E+02  0.2369E+02
   3.4100001  0.2193E+02  0.2399E+02
   3.4200001  0.2225E+02  0.2435E+02
   3.4300001  0.2256E+02  0.2476E+02
   3.4400001  0.2284E+02  0.2524E+02
   3.4500000  0.2310E+02  0.2577E+02
   3.4600000  0.2331E+02  0.2635E+02
   3.4700000  0.2346E+02  0.2697E+02
   3.4800000  0.2357E+02  0.2760E+02
   3.4900000  0.2363E+02  0.2823E+02
   3.5000000  0.2367E+02  0.2886E+02
   3.5100000  0.2370E+02  0.2949E+02
   3.5200000  0.2374E+02  0.3015E+02
   3.5300000  0.2378E+02  0.3084E+02
   3.5399997  0.2380E+02  0.3160E+02
   3.5499997  0.2379E+02  0.3241E+02
   3.5599997  0.2373E+02  0.3330E+02
   3.5700002  0.2359E+02  0.3424E+02
   3.5800002  0.2337E+02  0.3522E+02
   3.5900002  0.2304E+02  0.3622E+02
   3.6000001  0.2263E+02  0.3721E+02
   3.6100001  0.2213E+02  0.3820E+02
   3.6200001  0.2156E+02  0.3916E+02
   3.6300001  0.2092E+02  0.4011E+02
   3.6400001  0.2021E+02  0.4103E+02
   3.6500001  0.1943E+02  0.4192E+02
   3.6600001  0.1860E+02  0.4279E+02
   3.6699998  0.1771E+02  0.4363E+02
   3.6799998  0.1676E+02  0.4445E+02
   3.6899998  0.1575E+02  0.4526E+02
   3.6999998  0.1466E+02  0.4606E+02
   3.7099998  0.1346E+02  0.4684E+02
   3.7199998  0.1213E+02  0.4758E+02
   3.7299998  0.1065E+02  0.4823E+02
   3.7399998  0.9041E+01  0.4874E+02
   3.7500002  0.7352E+01  0.4905E+02
   3.7600002  0.5640E+01  0.4918E+02
   3.7700002  0.3956E+01  0.4912E+02
   3.7800002  0.2328E+01  0.4893E+02
   3.7900002  0.7500E+00  0.4863E+02
   3.8000000 -0.7942E+00  0.4824E+02
   3.8099999 -0.2312E+01  0.4774E+02
   3.8199999 -0.3792E+01  0.4711E+02
   3.8299999 -0.5202E+01  0.4635E+02
   3.8399999 -0.6506E+01  0.4547E+02
   3.8499999 -0.7680E+01  0.4451E+02
   3.8599999 -0.8717E+01  0.4349E+02
   3.8699999 -0.9627E+01  0.4246E+02
   3.8799999 -0.1043E+02  0.4144E+02
   3.8899999 -0.1116E+02  0.4043E+02
   3.8999999 -0.1183E+02  0.3944E+02
   3.9099998 -0.1245E+02  0.3845E+02
   3.9199998 -0.1303E+02  0.3743E+02
   3.9299998 -0.1354E+02  0.3638E+02
   3.9400001 -0.1397E+02  0.3531E+02
   3.9500000 -0.1430E+02  0.3424E+02
   3.9600000 -0.1453E+02  0.3319E+02
   3.9700000 -0.1467E+02  0.3218E+02
   3.9800000 -0.1474E+02  0.3124E+02
   3.9900000 -0.1476E+02  0.3037E+02
   4.0000000 -0.1477E+02  0.2958E+02
   4.0100002 -0.1478E+02  0.2884E+02
   4.0200000 -0.1481E+02  0.2814E+02
   4.0299997 -0.1486E+02  0.2746E+02
   4.0400000 -0.1494E+02  0.2676E+02
   4.0499997 -0.1503E+02  0.2603E+02
   4.0599999 -0.1510E+02  0.2526E+02
   4.0699997 -0.1512E+02  0.2444E+02
   4.0799999 -0.1508E+02  0.2359E+02
   4.0899997 -0.1496E+02  0.2272E+02
   4.0999999 -0.1474E+02  0.2187E+02
   4.1099997 -0.1444E+02  0.2104E+02
   4.1200004 -0.1406E+02  0.2028E+02
   4.1300001 -0.1361E+02  0.1958E+02
   4.1400003 -0.1312E+02  0.1896E+02
   4.1500001 -0.1260E+02  0.1841E+02
   4.1599998 -0.1206E+02  0.1795E+02
   4.1700001 -0.1151E+02  0.1755E+02
   4.1799998 -0.1097E+02  0.1722E+02
   4.1900001 -0.1043E+02  0.1696E+02
   4.1999998 -0.9912E+01  0.1675E+02
   4.2100000 -0.9411E+01  0.1660E+02
   4.2199998 -0.8932E+01  0.1650E+02
   4.2300000 -0.8476E+01  0.1643E+02
   4.2399998 -0.8041E+01  0.1641E+02
   4.2500000 -0.7630E+01  0.1643E+02
   4.2599998 -0.7246E+01  0.1649E+02
   4.2700000 -0.6898E+01  0.1660E+02
   4.2799997 -0.6598E+01  0.1674E+02
   4.2900000 -0.6354E+01  0.1691E+02
   4.3000002 -0.6171E+01  0.1709E+02
   4.3099999 -0.6043E+01  0.1727E+02
   4.3200002 -0.5962E+01  0.1742E+02
   4.3299999 -0.5913E+01  0.1755E+02
   4.3400002 -0.5883E+01  0.1766E+02
   4.3499999 -0.5863E+01  0.1775E+02
   4.3600001 -0.5849E+01  0.1783E+02
   4.3699999 -0.5842E+01  0.1791E+02
   4.3800001 -0.5846E+01  0.1798E+02
   4.3899999 -0.5868E+01  0.1806E+02
   4.4000001 -0.5910E+01  0.1813E+02
   4.4099998 -0.5972E+01  0.1819E+02
   4.4200001 -0.6052E+01  0.1822E+02
   4.4299998 -0.6140E+01  0.1824E+02
   4.4400001 -0.6227E+01  0.1823E+02
   4.4499998 -0.6307E+01  0.1820E+02
   4.4600000 -0.6371E+01  0.1816E+02
   4.4699998 -0.6419E+01  0.1811E+02
   4.4799995 -0.6451E+01  0.1807E+02
   4.4900002 -0.6471E+01  0.1804E+02
   4.5000000 -0.6487E+01  0.1803E+02
   4.5100002 -0.6510E+01  0.1804E+02
   4.5200000 -0.6547E+01  0.1806E+02
   4.5300002 -0.6607E+01  0.1810E+02
   4.5400000 -0.6692E+01  0.1814E+02
   4.5500002 -0.6799E+01  0.1817E+02
   4.5599999 -0.6925E+01  0.1818E+02
   4.5700002 -0.7063E+01  0.1819E+02
   4.5799999 -0.7213E+01  0.1818E+02
   4.5900002 -0.7372E+01  0.1816E+02
   4.5999999 -0.7542E+01  0.1812E+02
   4.6099997 -0.7722E+01  0.1807E+02
   4.6199999 -0.7911E+01  0.1800E+02
   4.6299996 -0.8104E+01  0.1791E+02
   4.6399999 -0.8299E+01  0.1779E+02
   4.6499996 -0.8491E+01  0.1764E+02
   4.6599998 -0.8677E+01  0.1747E+02
   4.6700001 -0.8850E+01  0.1727E+02
   4.6800003 -0.9002E+01  0.1704E+02
   4.6900001 -0.9122E+01  0.1679E+02
   4.7000003 -0.9199E+01  0.1651E+02
   4.7100000 -0.9229E+01  0.1624E+02
   4.7200003 -0.9211E+01  0.1598E+02
   4.7300000 -0.9156E+01  0.1575E+02
   4.7399998 -0.9074E+01  0.1556E+02
   4.7500000 -0.8983E+01  0.1542E+02
   4.7599998 -0.8895E+01  0.1531E+02
   4.7700000 -0.8825E+01  0.1524E+02
   4.7799997 -0.8779E+01  0.1520E+02
   4.7900000 -0.8762E+01  0.1516E+02
   4.7999997 -0.8771E+01  0.1514E+02
   4.8099999 -0.8804E+01  0.1510E+02
   4.8199997 -0.8855E+01  0.1506E+02
   4.8299999 -0.8921E+01  0.1501E+02
   4.8399997 -0.8996E+01  0.1495E+02
   4.8500004 -0.9077E+01  0.1487E+02
   4.8600001 -0.9159E+01  0.1477E+02
   4.8699999 -0.9238E+01  0.1467E+02
   4.8800001 -0.9312E+01  0.1456E+02
   4.8899999 -0.9382E+01  0.1444E+02
   4.9000001 -0.9448E+01  0.1432E+02
   4.9099998 -0.9512E+01  0.1419E+02
   4.9200001 -0.9579E+01  0.1407E+02
   4.9299998 -0.9648E+01  0.1394E+02
   4.9400001 -0.9723E+01  0.1381E+02
   4.9499998 -0.9802E+01  0.1366E+02
   4.9600000 -0.9881E+01  0.1349E+02
   4.9699998 -0.9956E+01  0.1330E+02
   4.9800000 -0.1002E+02  0.1309E+02
   4.9899998 -0.1005E+02  0.1286E+02
   5.0000000 -0.1005E+02  0.1261E+02
   5.0099998 -0.1001E+02  0.1236E+02
   5.0200000 -0.9920E+01  0.1213E+02
   5.0300002 -0.9797E+01  0.1193E+02
   5.0400000 -0.9650E+01  0.1177E+02
   5.0500002 -0.9496E+01  0.1167E+02
   5.0599999 -0.9352E+01  0.1160E+02
   5.0700002 -0.9233E+01  0.1158E+02
   5.0799999 -0.9148E+01  0.1159E+02
   5.0900002 -0.9102E+01  0.1160E+02
   5.0999999 -0.9092E+01  0.1161E+02
   5.1100001 -0.9110E+01  0.1162E+02
   5.1199999 -0.9147E+01  0.1160E+02
   5.1300001 -0.9194E+01  0.1157E+02
   5.1399999 -0.9245E+01  0.1152E+02
   5.1500001 -0.9299E+01  0.1147E+02
   5.1599998 -0.9358E+01  0.1141E+02
   5.1700001 -0.9425E+01  0.1134E+02
   5.1799998 -0.9502E+01  0.1127E+02
   5.1899996 -0.9590E+01  0.1118E+02
   5.1999998 -0.9684E+01  0.1107E+02
   5.2099996 -0.9779E+01  0.1094E+02
   5.2200003 -0.9870E+01  0.1079E+02
   5.2300000 -0.9952E+01  0.1062E+02
   5.2400002 -0.1002E+02  0.1043E+02
   5.2500000 -0.1007E+02  0.1023E+02
   5.2600002 -0.1011E+02  0.1001E+02
   5.2700000 -0.1012E+02  0.9791E+01
   5.2800002 -0.1011E+02  0.9564E+01
   5.2900000 -0.1008E+02  0.9334E+01
   5.3000002 -0.1003E+02  0.9105E+01
   5.3099999 -0.9961E+01  0.8880E+01
   5.3199997 -0.9867E+01  0.8664E+01
   5.3299999 -0.9753E+01  0.8461E+01
   5.3399997 -0.9621E+01  0.8275E+01
   5.3499999 -0.9476E+01  0.8109E+01
   5.3599997 -0.9324E+01  0.7965E+01
   5.3699999 -0.9169E+01  0.7842E+01
   5.3799996 -0.9015E+01  0.7739E+01
   5.3899999 -0.8867E+01  0.7651E+01
   5.4000001 -0.8724E+01  0.7575E+01
   5.4100003 -0.8586E+01  0.7510E+01
   5.4200001 -0.8452E+01  0.7454E+01
   5.4300003 -0.8323E+01  0.7408E+01
   5.4400001 -0.8198E+01  0.7373E+01
   5.4499998 -0.8082E+01  0.7347E+01
   5.4600000 -0.7976E+01  0.7329E+01
   5.4699998 -0.7881E+01  0.7314E+01
   5.4800000 -0.7797E+01  0.7299E+01
   5.4899998 -0.7720E+01  0.7281E+01
   5.5000000 -0.7647E+01  0.7258E+01
   5.5099998 -0.7575E+01  0.7230E+01
   5.5200000 -0.7500E+01  0.7200E+01
   5.5299997 -0.7420E+01  0.7170E+01
   5.5400000 -0.7336E+01  0.7143E+01
   5.5499997 -0.7246E+01  0.7122E+01
   5.5599999 -0.7154E+01  0.7111E+01
   5.5699997 -0.7063E+01  0.7110E+01
   5.5800004 -0.6976E+01  0.7120E+01
   5.5900002 -0.6895E+01  0.7139E+01
   5.5999999 -0.6822E+01  0.7165E+01
   5.6100001 -0.6757E+01  0.7194E+01
   5.6199999 -0.6697E+01  0.7228E+01
   5.6300001 -0.6643E+01  0.7265E+01
   5.6399999 -0.6594E+01  0.7310E+01
   5.6500001 -0.6553E+01  0.7363E+01
   5.6599998 -0.6525E+01  0.7425E+01
   5.6700001 -0.6514E+01  0.7495E+01
   5.6799998 -0.6524E+01  0.7566E+01
   5.6900001 -0.6557E+01  0.7632E+01
   5.6999998 -0.6613E+01  0.7685E+01
   5.7100000 -0.6685E+01  0.7720E+01
   5.7199998 -0.6767E+01  0.7731E+01
   5.7300000 -0.6852E+01  0.7718E+01
   5.7399998 -0.6933E+01  0.7684E+01
   5.7500000 -0.7003E+01  0.7631E+01
   5.7600002 -0.7062E+01  0.7567E+01
   5.7700000 -0.7109E+01  0.7495E+01
   5.7800002 -0.7146E+01  0.7417E+01
   5.7900000 -0.7172E+01  0.7335E+01
   5.8000002 -0.7189E+01  0.7251E+01
   5.8099999 -0.7196E+01  0.7164E+01
   5.8200002 -0.7193E+01  0.7077E+01
   5.8299999 -0.7179E+01  0.6992E+01
   5.8400002 -0.7154E+01  0.6910E+01
   5.8499999 -0.7120E+01  0.6834E+01
   5.8600001 -0.7077E+01  0.6766E+01
   5.8699999 -0.7028E+01  0.6709E+01
   5.8800001 -0.6976E+01  0.6664E+01
   5.8899999 -0.6924E+01  0.6631E+01
   5.8999996 -0.6875E+01  0.6610E+01
   5.9099998 -0.6832E+01  0.6598E+01
   5.9199996 -0.6796E+01  0.6596E+01
   5.9299998 -0.6770E+01  0.6599E+01
   5.9399996 -0.6754E+01  0.6607E+01
   5.9500003 -0.6748E+01  0.6618E+01
   5.9600000 -0.6754E+01  0.6629E+01
   5.9700003 -0.6772E+01  0.6640E+01
   5.9800000 -0.6803E+01  0.6646E+01
   5.9900002 -0.6847E+01  0.6645E+01
   6.0000000 -0.6902E+01  0.6633E+01
   6.0100002 -0.6965E+01  0.6607E+01
   6.0200000 -0.7032E+01  0.6564E+01
   6.0300002 -0.7100E+01  0.6504E+01
   6.0400000 -0.7166E+01  0.6428E+01
   6.0499997 -0.7225E+01  0.6337E+01
   6.0599999 -0.7275E+01  0.6230E+01
   6.0699997 -0.7314E+01  0.6110E+01
   6.0799999 -0.7337E+01  0.5979E+01
   6.0899997 -0.7343E+01  0.5838E+01
   6.0999999 -0.7328E+01  0.5693E+01
   6.1099997 -0.7290E+01  0.5549E+01
   6.1199999 -0.7231E+01  0.5411E+01
   6.1300001 -0.7153E+01  0.5285E+01
   6.1400003 -0.7061E+01  0.5176E+01
   6.1500001 -0.6959E+01  0.5084E+01
   6.1600003 -0.6854E+01  0.5009E+01
   6.1700001 -0.6747E+01  0.4950E+01
   6.1799998 -0.6641E+01  0.4904E+01
   6.1900001 -0.6537E+01  0.4871E+01
   6.1999998 -0.6435E+01  0.4850E+01
   6.2100000 -0.6337E+01  0.4841E+01
   6.2199998 -0.6243E+01  0.4844E+01
   6.2300000 -0.6157E+01  0.4860E+01
   6.2399998 -0.6081E+01  0.4887E+01
   6.2500000 -0.6017E+01  0.4923E+01
   6.2599998 -0.5970E+01  0.4965E+01
   6.2700000 -0.5939E+01  0.5009E+01
   6.2799997 -0.5923E+01  0.5050E+01
   6.2900000 -0.5923E+01  0.5084E+01
   6.2999997 -0.5933E+01  0.5108E+01
   6.3099999 -0.5950E+01  0.5120E+01
   6.3200002 -0.5971E+01  0.5119E+01
   6.3299999 -0.5990E+01  0.5107E+01
   6.3400002 -0.6004E+01  0.5085E+01
   6.3499999 -0.6013E+01  0.5057E+01
   6.3600001 -0.6014E+01  0.5026E+01
   6.3699999 -0.6009E+01  0.4994E+01
   6.3800001 -0.5999E+01  0.4966E+01
   6.3899999 -0.5986E+01  0.4941E+01
   6.4000001 -0.5973E+01  0.4922E+01
   6.4099998 -0.5963E+01  0.4905E+01
   6.4200001 -0.5957E+01  0.4890E+01
   6.4299998 -0.5955E+01  0.4875E+01
   6.4400001 -0.5957E+01  0.4857E+01
   6.4499998 -0.5962E+01  0.4836E+01
   6.4600000 -0.5968E+01  0.4810E+01
   6.4699998 -0.5974E+01  0.4780E+01
   6.4800000 -0.5979E+01  0.4745E+01
   6.4899998 -0.5981E+01  0.4706E+01
   6.5000000 -0.5980E+01  0.4663E+01
   6.5100002 -0.5973E+01  0.4617E+01
   6.5200000 -0.5961E+01  0.4571E+01
   6.5300002 -0.5942E+01  0.4526E+01
   6.5400000 -0.5917E+01  0.4485E+01
   6.5500002 -0.5888E+01  0.4451E+01
   6.5599999 -0.5859E+01  0.4423E+01
   6.5700002 -0.5831E+01  0.4402E+01
   6.5799999 -0.5807E+01  0.4386E+01
   6.5900002 -0.5790E+01  0.4374E+01
   6.5999999 -0.5779E+01  0.4362E+01
   6.6100001 -0.5775E+01  0.4347E+01
   6.6199999 -0.5774E+01  0.4327E+01
   6.6299996 -0.5774E+01  0.4300E+01
   6.6399999 -0.5772E+01  0.4267E+01
   6.6499996 -0.5763E+01  0.4232E+01
   6.6599998 -0.5749E+01  0.4197E+01
   6.6699996 -0.5730E+01  0.4167E+01
   6.6800003 -0.5710E+01  0.4142E+01
   6.6900001 -0.5692E+01  0.4124E+01
   6.7000003 -0.5679E+01  0.4110E+01
   6.7100000 -0.5673E+01  0.4097E+01
   6.7200003 -0.5674E+01  0.4083E+01
   6.7300000 -0.5681E+01  0.4064E+01
   6.7400002 -0.5692E+01  0.4039E+01
   6.7500000 -0.5704E+01  0.4007E+01
   6.7599998 -0.5715E+01  0.3967E+01
   6.7700000 -0.5723E+01  0.3921E+01
   6.7799997 -0.5726E+01  0.3870E+01
   6.7900000 -0.5724E+01  0.3816E+01
   6.7999997 -0.5716E+01  0.3760E+01
   6.8100004 -0.5701E+01  0.3703E+01
   6.8200002 -0.5682E+01  0.3648E+01
   6.8300004 -0.5658E+01  0.3595E+01
   6.8400002 -0.5631E+01  0.3545E+01
   6.8500004 -0.5602E+01  0.3497E+01
   6.8600001 -0.5571E+01  0.3452E+01
   6.8700004 -0.5539E+01  0.3410E+01
   6.8800001 -0.5507E+01  0.3369E+01
   6.8899999 -0.5474E+01  0.3329E+01
   6.9000001 -0.5441E+01  0.3290E+01
   6.9099998 -0.5406E+01  0.3251E+01
   6.9200001 -0.5370E+01  0.3213E+01
   6.9299998 -0.5331E+01  0.3175E+01
   6.9400001 -0.5290E+01  0.3140E+01
   6.9499998 -0.5247E+01  0.3108E+01
   6.9600000 -0.5202E+01  0.3078E+01
   6.9699998 -0.5157E+01  0.3052E+01
   6.9800000 -0.5111E+01  0.3030E+01
   6.9899998 -0.5067E+01  0.3009E+01
   7.0000000 -0.5023E+01  0.2991E+01
   7.0099998 -0.4979E+01  0.2975E+01
   7.0200000 -0.4936E+01  0.2960E+01
   7.0299997 -0.4893E+01  0.2948E+01
   7.0400000 -0.4851E+01  0.2938E+01
   7.0499997 -0.4810E+01  0.2930E+01
   7.0599999 -0.4769E+01  0.2923E+01
   7.0699997 -0.4730E+01  0.2919E+01
   7.0799994 -0.4691E+01  0.2916E+01
   7.0899997 -0.4654E+01  0.2914E+01
   7.0999994 -0.4617E+01  0.2914E+01
   7.1099997 -0.4582E+01  0.2915E+01
   7.1199994 -0.4547E+01  0.2917E+01
   7.1299996 -0.4512E+01  0.2922E+01
   7.1400003 -0.4478E+01  0.2928E+01
   7.1500001 -0.4445E+01  0.2938E+01
   7.1600003 -0.4413E+01  0.2951E+01
   7.1700001 -0.4384E+01  0.2967E+01
   7.1800003 -0.4360E+01  0.2987E+01
   7.1900001 -0.4341E+01  0.3010E+01
   7.2000003 -0.4328E+01  0.3033E+01
   7.2100000 -0.4322E+01  0.3055E+01
   7.2200003 -0.4322E+01  0.3074E+01
   7.2300000 -0.4325E+01  0.3089E+01
   7.2400002 -0.4332E+01  0.3099E+01
   7.2500000 -0.4340E+01  0.3104E+01
   7.2600002 -0.4348E+01  0.3106E+01
   7.2700000 -0.4355E+01  0.3104E+01
   7.2800002 -0.4362E+01  0.3100E+01
   7.2900000 -0.4367E+01  0.3094E+01
   7.3000002 -0.4372E+01  0.3087E+01
   7.3099999 -0.4376E+01  0.3080E+01
   7.3200002 -0.4380E+01  0.3071E+01
   7.3299999 -0.4385E+01  0.3062E+01
   7.3399997 -0.4390E+01  0.3051E+01
   7.3499999 -0.4396E+01  0.3040E+01
   7.3599997 -0.4402E+01  0.3026E+01
   7.3699999 -0.4409E+01  0.3010E+01
   7.3799996 -0.4414E+01  0.2991E+01
   7.3899999 -0.4419E+01  0.2971E+01
   7.3999996 -0.4422E+01  0.2948E+01
   7.4099998 -0.4423E+01  0.2924E+01
   7.4199996 -0.4422E+01  0.2899E+01
   7.4299998 -0.4420E+01  0.2873E+01
   7.4399996 -0.4415E+01  0.2845E+01
   7.4499998 -0.4408E+01  0.2817E+01
   7.4599996 -0.4397E+01  0.2789E+01
   7.4699998 -0.4384E+01  0.2762E+01
   7.4799995 -0.4366E+01  0.2736E+01
   7.4899998 -0.4346E+01  0.2714E+01
   7.5000005 -0.4325E+01  0.2696E+01
   7.5100002 -0.4303E+01  0.2683E+01
   7.5200005 -0.4285E+01  0.2674E+01
   7.5300002 -0.4269E+01  0.2668E+01
   7.5400004 -0.4259E+01  0.2662E+01
   7.5500002 -0.4252E+01  0.2656E+01
   7.5600004 -0.4249E+01  0.2648E+01
   7.5700002 -0.4247E+01  0.2636E+01
   7.5800004 -0.4246E+01  0.2620E+01
   7.5900002 -0.4243E+01  0.2602E+01
   7.5999999 -0.4238E+01  0.2582E+01
   7.6100001 -0.4231E+01  0.2561E+01
   7.6199999 -0.4221E+01  0.2541E+01
   7.6300001 -0.4211E+01  0.2523E+01
   7.6399999 -0.4202E+01  0.2506E+01
   7.6500001 -0.4193E+01  0.2489E+01
   7.6599998 -0.4186E+01  0.2472E+01
   7.6700001 -0.4181E+01  0.2454E+01
   7.6799998 -0.4177E+01  0.2434E+01
   7.6900001 -0.4173E+01  0.2411E+01
   7.6999998 -0.4168E+01  0.2384E+01
   7.7100000 -0.4161E+01  0.2353E+01
   7.7199998 -0.4150E+01  0.2318E+01
   7.7300000 -0.4134E+01  0.2282E+01
   7.7399998 -0.4111E+01  0.2245E+01
   7.7500000 -0.4081E+01  0.2211E+01
   7.7599998 -0.4045E+01  0.2180E+01
   7.7700000 -0.4005E+01  0.2156E+01
   7.7799997 -0.3962E+01  0.2137E+01
   7.7899995 -0.3917E+01  0.2127E+01
   7.7999997 -0.3874E+01  0.2123E+01
   7.8099995 -0.3832E+01  0.2127E+01
   7.8199997 -0.3795E+01  0.2137E+01
   7.8299994 -0.3764E+01  0.2152E+01
   7.8399997 -0.3740E+01  0.2172E+01
   7.8499994 -0.3723E+01  0.2192E+01
   7.8599997 -0.3715E+01  0.2212E+01
   7.8700004 -0.3714E+01  0.2228E+01
   7.8800001 -0.3718E+01  0.2239E+01
   7.8900003 -0.3724E+01  0.2244E+01
   7.9000001 -0.3732E+01  0.2243E+01
   7.9100003 -0.3739E+01  0.2237E+01
   7.9200001 -0.3744E+01  0.2228E+01
   7.9300003 -0.3746E+01  0.2215E+01
   7.9400001 -0.3747E+01  0.2201E+01
   7.9500003 -0.3746E+01  0.2186E+01
   7.9600000 -0.3743E+01  0.2169E+01
   7.9700003 -0.3738E+01  0.2151E+01
   7.9800000 -0.3729E+01  0.2132E+01
   7.9900002 -0.3717E+01  0.2114E+01
   8.0000000 -0.3702E+01  0.2098E+01
   8.0100002 -0.3685E+01  0.2085E+01
   8.0200005 -0.3667E+01  0.2076E+01
   8.0299997 -0.3650E+01  0.2070E+01
   8.0400000 -0.3636E+01  0.2068E+01
   8.0500002 -0.3624E+01  0.2067E+01
   8.0599995 -0.3616E+01  0.2066E+01
   8.0699997 -0.3611E+01  0.2064E+01
   8.0799999 -0.3608E+01  0.2060E+01
   8.0900002 -0.3606E+01  0.2054E+01
   8.0999994 -0.3604E+01  0.2046E+01
   8.1099997 -0.3601E+01  0.2037E+01
   8.1199999 -0.3598E+01  0.2027E+01
   8.1300001 -0.3594E+01  0.2016E+01
   8.1399994 -0.3589E+01  0.2006E+01
   8.1499996 -0.3585E+01  0.1997E+01
   8.1599998 -0.3582E+01  0.1987E+01
   8.1700001 -0.3581E+01  0.1977E+01
   8.1799994 -0.3581E+01  0.1965E+01
   8.1899996 -0.3581E+01  0.1951E+01
   8.1999998 -0.3581E+01  0.1934E+01
   8.2100000 -0.3579E+01  0.1914E+01
   8.2199993 -0.3576E+01  0.1893E+01
   8.2300005 -0.3570E+01  0.1871E+01
   8.2400007 -0.3562E+01  0.1848E+01
   8.2500000 -0.3551E+01  0.1825E+01
   8.2600002 -0.3539E+01  0.1803E+01
   8.2700005 -0.3525E+01  0.1781E+01
   8.2800007 -0.3508E+01  0.1760E+01
   8.2900000 -0.3490E+01  0.1739E+01
   8.3000002 -0.3469E+01  0.1720E+01
   8.3100004 -0.3447E+01  0.1703E+01
   8.3199997 -0.3423E+01  0.1689E+01
   8.3299999 -0.3398E+01  0.1679E+01
   8.3400002 -0.3374E+01  0.1671E+01
   8.3500004 -0.3352E+01  0.1667E+01
   8.3599997 -0.3332E+01  0.1664E+01
   8.3699999 -0.3315E+01  0.1663E+01
   8.3800001 -0.3300E+01  0.1661E+01
   8.3900003 -0.3286E+01  0.1658E+01
   8.3999996 -0.3273E+01  0.1654E+01
   8.4099998 -0.3259E+01  0.1650E+01
   8.4200001 -0.3245E+01  0.1646E+01
   8.4300003 -0.3231E+01  0.1643E+01
   8.4399996 -0.3217E+01  0.1642E+01
   8.4499998 -0.3205E+01  0.1642E+01
   8.4600000 -0.3195E+01  0.1643E+01
   8.4700003 -0.3188E+01  0.1643E+01
   8.4799995 -0.3182E+01  0.1642E+01
   8.4899998 -0.3178E+01  0.1640E+01
   8.5000000 -0.3176E+01  0.1635E+01
   8.5099993 -0.3173E+01  0.1628E+01
   8.5199995 -0.3170E+01  0.1617E+01
   8.5299997 -0.3164E+01  0.1605E+01
   8.5400000 -0.3156E+01  0.1593E+01
   8.5499992 -0.3146E+01  0.1580E+01
   8.5599995 -0.3134E+01  0.1568E+01
   8.5699997 -0.3120E+01  0.1558E+01
   8.5799999 -0.3106E+01  0.1549E+01
   8.5899992 -0.3092E+01  0.1542E+01
   8.6000004 -0.3078E+01  0.1535E+01
   8.6100006 -0.3064E+01  0.1529E+01
   8.6199999 -0.3049E+01  0.1523E+01
   8.6300001 -0.3034E+01  0.1518E+01
   8.6400003 -0.3018E+01  0.1514E+01
   8.6500006 -0.3002E+01  0.1512E+01
   8.6599998 -0.2987E+01  0.1513E+01
   8.6700001 -0.2973E+01  0.1515E+01
   8.6800003 -0.2960E+01  0.1519E+01
   8.6900005 -0.2949E+01  0.1524E+01
   8.6999998 -0.2941E+01  0.1529E+01
   8.7100000 -0.2936E+01  0.1535E+01
   8.7200003 -0.2932E+01  0.1540E+01
   8.7300005 -0.2931E+01  0.1543E+01
   8.7399998 -0.2931E+01  0.1545E+01
   8.7500000 -0.2932E+01  0.1545E+01
   8.7600002 -0.2933E+01  0.1544E+01
   8.7699995 -0.2933E+01  0.1541E+01
   8.7799997 -0.2934E+01  0.1538E+01
   8.7900000 -0.2934E+01  0.1534E+01
   8.8000002 -0.2935E+01  0.1530E+01
   8.8099995 -0.2936E+01  0.1526E+01
   8.8199997 -0.2938E+01  0.1521E+01
   8.8299999 -0.2941E+01  0.1515E+01
   8.8400002 -0.2946E+01  0.1507E+01
   8.8499994 -0.2950E+01  0.1497E+01
   8.8599997 -0.2954E+01  0.1484E+01
   8.8699999 -0.2957E+01  0.1469E+01
   8.8800001 -0.2958E+01  0.1452E+01
   8.8899994 -0.2956E+01  0.1433E+01
   8.8999996 -0.2952E+01  0.1414E+01
   8.9099998 -0.2944E+01  0.1394E+01
   8.9200001 -0.2933E+01  0.1376E+01
   8.9299994 -0.2920E+01  0.1359E+01
   8.9399996 -0.2905E+01  0.1345E+01
   8.9499998 -0.2888E+01  0.1333E+01
   8.9599991 -0.2871E+01  0.1324E+01
   8.9700003 -0.2855E+01  0.1318E+01
   8.9800005 -0.2838E+01  0.1314E+01
   8.9900007 -0.2824E+01  0.1313E+01
   9.0000000 -0.2811E+01  0.1314E+01
   9.0100002 -0.2800E+01  0.1317E+01
   9.0200005 -0.2793E+01  0.1320E+01
   9.0299997 -0.2788E+01  0.1324E+01
   9.0400000 -0.2787E+01  0.1327E+01
   9.0500002 -0.2788E+01  0.1329E+01
   9.0600004 -0.2791E+01  0.1328E+01
   9.0699997 -0.2796E+01  0.1324E+01
   9.0799999 -0.2801E+01  0.1318E+01
   9.0900002 -0.2806E+01  0.1310E+01
   9.1000004 -0.2810E+01  0.1300E+01
   9.1099997 -0.2814E+01  0.1288E+01
   9.1199999 -0.2817E+01  0.1274E+01
   9.1300001 -0.2819E+01  0.1258E+01
   9.1400003 -0.2819E+01  0.1242E+01
   9.1499996 -0.2817E+01  0.1224E+01
   9.1599998 -0.2814E+01  0.1207E+01
   9.1700001 -0.2809E+01  0.1189E+01
   9.1800003 -0.2803E+01  0.1171E+01
   9.1899996 -0.2796E+01  0.1154E+01
   9.1999998 -0.2789E+01  0.1137E+01
   9.2100000 -0.2780E+01  0.1119E+01
   9.2199993 -0.2770E+01  0.1101E+01
   9.2299995 -0.2759E+01  0.1084E+01
   9.2399998 -0.2746E+01  0.1067E+01
   9.2500000 -0.2731E+01  0.1051E+01
   9.2599993 -0.2715E+01  0.1036E+01
   9.2699995 -0.2698E+01  0.1024E+01
   9.2799997 -0.2681E+01  0.1014E+01
   9.2900000 -0.2665E+01  0.1006E+01
   9.2999992 -0.2651E+01  0.9994E+00
   9.3099995 -0.2638E+01  0.9928E+00
   9.3199997 -0.2626E+01  0.9856E+00
   9.3299999 -0.2615E+01  0.9776E+00
   9.3400002 -0.2603E+01  0.9688E+00
   9.3500004 -0.2591E+01  0.9598E+00
   9.3600006 -0.2578E+01  0.9510E+00
   9.3699999 -0.2564E+01  0.9430E+00
   9.3800001 -0.2550E+01  0.9357E+00
   9.3900003 -0.2537E+01  0.9290E+00
   9.4000006 -0.2524E+01  0.9225E+00
   9.4099998 -0.2511E+01  0.9161E+00
   9.4200001 -0.2498E+01  0.9097E+00
   9.4300003 -0.2485E+01  0.9034E+00
   9.4400005 -0.2472E+01  0.8974E+00
   9.4499998 -0.2459E+01  0.8918E+00
   9.4600000 -0.2445E+01  0.8866E+00
   9.4700003 -0.2432E+01  0.8815E+00
   9.4799995 -0.2419E+01  0.8763E+00
   9.4899998 -0.2406E+01  0.8711E+00
   9.5000000 -0.2392E+01  0.8661E+00
   9.5100002 -0.2377E+01  0.8617E+00
   9.5199995 -0.2361E+01  0.8585E+00
   9.5299997 -0.2345E+01  0.8569E+00
   9.5400000 -0.2330E+01  0.8570E+00
   9.5500002 -0.2316E+01  0.8584E+00
   9.5599995 -0.2303E+01  0.8606E+00
   9.5699997 -0.2292E+01  0.8628E+00
   9.5799999 -0.2283E+01  0.8646E+00
   9.5900002 -0.2274E+01  0.8657E+00
   9.5999994 -0.2265E+01  0.8663E+00
   9.6099997 -0.2256E+01  0.8666E+00
   9.6199999 -0.2247E+01  0.8667E+00
   9.6300001 -0.2239E+01  0.8668E+00
   9.6399994 -0.2230E+01  0.8671E+00
   9.6499996 -0.2220E+01  0.8678E+00
   9.6599998 -0.2211E+01  0.8694E+00
   9.6699991 -0.2203E+01  0.8720E+00
   9.6799994 -0.2196E+01  0.8754E+00
   9.6899996 -0.2190E+01  0.8791E+00
   9.7000008 -0.2186E+01  0.8826E+00
   9.7100000 -0.2184E+01  0.8849E+00
   9.7200003 -0.2183E+01  0.8857E+00
   9.7300005 -0.2182E+01  0.8847E+00
   9.7399998 -0.2180E+01  0.8824E+00
   9.7500000 -0.2178E+01  0.8793E+00
   9.7600002 -0.2174E+01  0.8763E+00
   9.7700005 -0.2170E+01  0.8739E+00
   9.7799997 -0.2166E+01  0.8723E+00
   9.7900000 -0.2163E+01  0.8714E+00
   9.8000002 -0.2161E+01  0.8706E+00
   9.8100004 -0.2161E+01  0.8690E+00
   9.8199997 -0.2163E+01  0.8660E+00
   9.8299999 -0.2164E+01  0.8611E+00
   9.8400002 -0.2166E+01  0.8542E+00
   9.8500004 -0.2168E+01  0.8450E+00
   9.8599997 -0.2168E+01  0.8339E+00
   9.8699999 -0.2166E+01  0.8211E+00
   9.8800001 -0.2162E+01  0.8073E+00
   9.8900003 -0.2155E+01  0.7933E+00
   9.8999996 -0.2146E+01  0.7799E+00
   9.9099998 -0.2135E+01  0.7678E+00
   9.9200001 -0.2122E+01  0.7575E+00
   9.9299994 -0.2109E+01  0.7491E+00
   9.9399996 -0.2095E+01  0.7425E+00
   9.9499998 -0.2082E+01  0.7373E+00
   9.9600000 -0.2070E+01  0.7333E+00
   9.9699993 -0.2058E+01  0.7298E+00
   9.9799995 -0.2046E+01  0.7268E+00
   9.9899998 -0.2035E+01  0.7240E+00
  10.0000000 -0.2024E+01  0.7214E+00
  10.0099993 -0.2013E+01  0.7192E+00
  10.0199995 -0.2001E+01  0.7177E+00
  10.0299997 -0.1990E+01  0.7171E+00
  10.0400000 -0.1979E+01  0.7175E+00
  10.0499992 -0.1968E+01  0.7189E+00
  10.0600004 -0.1959E+01  0.7211E+00
  10.0700006 -0.1950E+01  0.7237E+00
  10.0799999 -0.1943E+01  0.7265E+00
  10.0900002 -0.1937E+01  0.7292E+00
  10.1000004 -0.1932E+01  0.7316E+00
  10.1100006 -0.1928E+01  0.7335E+00
  10.1199999 -0.1924E+01  0.7349E+00
  10.1300001 -0.1922E+01  0.7355E+00
  10.1400003 -0.1919E+01  0.7351E+00
  10.1500006 -0.1917E+01  0.7335E+00
  10.1599998 -0.1915E+01  0.7309E+00
  10.1700001 -0.1912E+01  0.7276E+00
  10.1800003 -0.1907E+01  0.7241E+00
  10.1899996 -0.1902E+01  0.7209E+00
  10.1999998 -0.1897E+01  0.7182E+00
  10.2100000 -0.1892E+01  0.7161E+00
  10.2200003 -0.1887E+01  0.7145E+00
  10.2299995 -0.1883E+01  0.7130E+00
  10.2399998 -0.1879E+01  0.7114E+00
  10.2500000 -0.1876E+01  0.7094E+00
  10.2600002 -0.1872E+01  0.7070E+00
  10.2699995 -0.1869E+01  0.7040E+00
  10.2799997 -0.1866E+01  0.7004E+00
  10.2900000 -0.1863E+01  0.6963E+00
  10.3000002 -0.1859E+01  0.6920E+00
  10.3099995 -0.1854E+01  0.6877E+00
  10.3199997 -0.1849E+01  0.6835E+00
  10.3299999 -0.1844E+01  0.6795E+00
  10.3400002 -0.1839E+01  0.6757E+00
  10.3499994 -0.1834E+01  0.6721E+00
  10.3599997 -0.1828E+01  0.6685E+00
  10.3699999 -0.1823E+01  0.6650E+00
  10.3799992 -0.1817E+01  0.6617E+00
  10.3899994 -0.1811E+01  0.6587E+00
  10.3999996 -0.1805E+01  0.6561E+00
  10.4099998 -0.1800E+01  0.6539E+00
  10.4199991 -0.1794E+01  0.6521E+00
  10.4300003 -0.1789E+01  0.6505E+00
  10.4400005 -0.1785E+01  0.6489E+00
  10.4499998 -0.1781E+01  0.6471E+00
  10.4600000 -0.1777E+01  0.6450E+00
  10.4700003 -0.1773E+01  0.6426E+00
  10.4800005 -0.1770E+01  0.6399E+00
  10.4899998 -0.1766E+01  0.6369E+00
  10.5000000 -0.1763E+01  0.6337E+00
  10.5100002 -0.1759E+01  0.6302E+00
  10.5200005 -0.1755E+01  0.6265E+00
  10.5299997 -0.1750E+01  0.6229E+00
  10.5400000 -0.1746E+01  0.6194E+00
  10.5500002 -0.1740E+01  0.6164E+00
  10.5600004 -0.1736E+01  0.6140E+00
  10.5699997 -0.1731E+01  0.6122E+00
  10.5799999 -0.1727E+01  0.6107E+00
  10.5900002 -0.1724E+01  0.6092E+00
  10.6000004 -0.1723E+01  0.6071E+00
  10.6099997 -0.1721E+01  0.6040E+00
  10.6199999 -0.1720E+01  0.5997E+00
  10.6300001 -0.1719E+01  0.5941E+00
  10.6399994 -0.1716E+01  0.5875E+00
  10.6499996 -0.1713E+01  0.5804E+00
  10.6599998 -0.1708E+01  0.5733E+00
  10.6700001 -0.1702E+01  0.5666E+00
  10.6799994 -0.1696E+01  0.5606E+00
  10.6899996 -0.1689E+01  0.5554E+00
  10.6999998 -0.1681E+01  0.5512E+00
  10.7100000 -0.1674E+01  0.5477E+00
  10.7199993 -0.1667E+01  0.5450E+00
  10.7299995 -0.1660E+01  0.5430E+00
  10.7399998 -0.1654E+01  0.5414E+00
  10.7500000 -0.1649E+01  0.5401E+00
  10.7599993 -0.1644E+01  0.5387E+00
  10.7699995 -0.1640E+01  0.5372E+00
  10.7799997 -0.1637E+01  0.5355E+00
  10.7900000 -0.1634E+01  0.5335E+00
  10.8000002 -0.1631E+01  0.5312E+00
  10.8100004 -0.1629E+01  0.5284E+00
  10.8200006 -0.1627E+01  0.5250E+00
  10.8299999 -0.1625E+01  0.5207E+00
  10.8400002 -0.1623E+01  0.5156E+00
  10.8500004 -0.1621E+01  0.5096E+00
  10.8600006 -0.1617E+01  0.5032E+00
  10.8699999 -0.1613E+01  0.4964E+00
  10.8800001 -0.1609E+01  0.4896E+00
  10.8900003 -0.1603E+01  0.4830E+00
  10.8999996 -0.1597E+01  0.4768E+00
  10.9099998 -0.1590E+01  0.4711E+00
  10.9200001 -0.1583E+01  0.4659E+00
  10.9300003 -0.1577E+01  0.4610E+00
  10.9399996 -0.1570E+01  0.4565E+00
  10.9499998 -0.1563E+01  0.4523E+00
  10.9600000 -0.1556E+01  0.4483E+00
  10.9700003 -0.1549E+01  0.4444E+00
  10.9799995 -0.1543E+01  0.4406E+00
  10.9899998 -0.1536E+01  0.4370E+00
  11.0000000 -0.1529E+01  0.4335E+00
  11.0100002 -0.1522E+01  0.4302E+00
  11.0199995 -0.1515E+01  0.4270E+00
  11.0299997 -0.1508E+01  0.4241E+00
  11.0400000 -0.1502E+01  0.4213E+00
  11.0500002 -0.1495E+01  0.4187E+00
  11.0599995 -0.1488E+01  0.4162E+00
  11.0699997 -0.1481E+01  0.4139E+00
  11.0799999 -0.1474E+01  0.4118E+00
  11.0899992 -0.1467E+01  0.4101E+00
  11.0999994 -0.1461E+01  0.4087E+00
  11.1099997 -0.1454E+01  0.4078E+00
  11.1199999 -0.1448E+01  0.4072E+00
  11.1299992 -0.1443E+01  0.4066E+00
  11.1399994 -0.1438E+01  0.4061E+00
  11.1499996 -0.1433E+01  0.4054E+00
  11.1600008 -0.1429E+01  0.4045E+00
  11.1700001 -0.1425E+01  0.4034E+00
  11.1800003 -0.1422E+01  0.4019E+00
  11.1900005 -0.1418E+01  0.3999E+00
  11.1999998 -0.1415E+01  0.3975E+00
  11.2100000 -0.1412E+01  0.3945E+00
  11.2200003 -0.1408E+01  0.3910E+00
  11.2300005 -0.1404E+01  0.3872E+00
  11.2399998 -0.1400E+01  0.3831E+00
  11.2500000 -0.1395E+01  0.3790E+00
  11.2600002 -0.1389E+01  0.3751E+00
  11.2700005 -0.1384E+01  0.3714E+00
  11.2799997 -0.1378E+01  0.3681E+00
  11.2900000 -0.1372E+01  0.3650E+00
  11.3000002 -0.1365E+01  0.3621E+00
  11.3100004 -0.1359E+01  0.3594E+00
  11.3199997 -0.1353E+01  0.3569E+00
  11.3299999 -0.1347E+01  0.3546E+00
  11.3400002 -0.1341E+01  0.3527E+00
  11.3499994 -0.1334E+01  0.3512E+00
  11.3599997 -0.1329E+01  0.3499E+00
  11.3699999 -0.1323E+01  0.3488E+00
  11.3800001 -0.1319E+01  0.3475E+00
  11.3899994 -0.1314E+01  0.3458E+00
  11.3999996 -0.1310E+01  0.3435E+00
  11.4099998 -0.1306E+01  0.3405E+00
  11.4200001 -0.1301E+01  0.3368E+00
  11.4299994 -0.1296E+01  0.3328E+00
  11.4399996 -0.1289E+01  0.3289E+00
  11.4499998 -0.1282E+01  0.3253E+00
  11.4600000 -0.1273E+01  0.3226E+00
  11.4699993 -0.1265E+01  0.3207E+00
  11.4799995 -0.1256E+01  0.3198E+00
  11.4899998 -0.1248E+01  0.3198E+00
  11.5000000 -0.1240E+01  0.3206E+00
  11.5099993 -0.1232E+01  0.3221E+00
  11.5200005 -0.1225E+01  0.3243E+00
  11.5300007 -0.1219E+01  0.3269E+00
  11.5400000 -0.1213E+01  0.3298E+00
  11.5500002 -0.1209E+01  0.3328E+00
  11.5600004 -0.1205E+01  0.3359E+00
  11.5700006 -0.1202E+01  0.3387E+00
  11.5799999 -0.1200E+01  0.3412E+00
  11.5900002 -0.1199E+01  0.3433E+00
  11.6000004 -0.1198E+01  0.3449E+00
  11.6100006 -0.1197E+01  0.3458E+00
  11.6199999 -0.1198E+01  0.3460E+00
  11.6300001 -0.1198E+01  0.3454E+00
  11.6400003 -0.1198E+01  0.3437E+00
  11.6499996 -0.1198E+01  0.3412E+00
  11.6599998 -0.1198E+01  0.3380E+00
  11.6700001 -0.1197E+01  0.3341E+00
  11.6800003 -0.1196E+01  0.3299E+00
  11.6899996 -0.1194E+01  0.3253E+00
  11.6999998 -0.1192E+01  0.3206E+00
  11.7100000 -0.1188E+01  0.3158E+00
  11.7200003 -0.1185E+01  0.3109E+00
  11.7299995 -0.1181E+01  0.3060E+00
  11.7399998 -0.1176E+01  0.3011E+00
  11.7500000 -0.1170E+01  0.2964E+00
  11.7600002 -0.1164E+01  0.2920E+00
  11.7699995 -0.1157E+01  0.2882E+00
  11.7799997 -0.1150E+01  0.2853E+00
  11.7900000 -0.1142E+01  0.2835E+00
  11.7999992 -0.1135E+01  0.2826E+00
  11.8099995 -0.1128E+01  0.2827E+00
  11.8199997 -0.1121E+01  0.2835E+00
  11.8299999 -0.1115E+01  0.2850E+00
  11.8399992 -0.1110E+01  0.2868E+00
  11.8499994 -0.1106E+01  0.2887E+00
  11.8599997 -0.1104E+01  0.2906E+00
  11.8699999 -0.1102E+01  0.2919E+00
  11.8799992 -0.1100E+01  0.2926E+00
  11.8900003 -0.1099E+01  0.2925E+00
  11.9000006 -0.1099E+01  0.2915E+00
  11.9099998 -0.1098E+01  0.2896E+00
  11.9200001 -0.1097E+01  0.2870E+00
  11.9300003 -0.1095E+01  0.2839E+00
  11.9400005 -0.1093E+01  0.2804E+00
  11.9499998 -0.1090E+01  0.2767E+00
  11.9600000 -0.1087E+01  0.2729E+00
  11.9700003 -0.1083E+01  0.2692E+00
  11.9800005 -0.1079E+01  0.2656E+00
  11.9899998 -0.1074E+01  0.2623E+00
  12.0000000 -0.1069E+01  0.2595E+00
