# macroscopic dielectric function
# with local fields
# testparticle  Long-range kernel al
# soenergy =  0.65 [eV] - valence/conduction stretching 1.00 /  1.00
# alpha = -0.20
# npwmat =   59  npwwfn =  283  nbands =    8  lomo =    2  nkibz = 1024  nkbz = 1024
# energy range   0.00  7.00 [eV]
# lorentzian broadening =   0.0750 [eV]
# dsf factor     0.000000 [a.u.] 
# unit cell volume    266.630737 [a.u.] 
# G = (  0,  0,  0) [r.l.u.]
# G = ( 0.000000, 0.000000, 0.000000) [c.c.]
# G = ( 0.000000, 0.000000, 0.000000) [c.c. units of 2pi/a =  0.614974 a.u.]
# q -> 0 average over the three cartesian directions
# omega       eps_1       eps_2
   0.0000000  0.1263E+02 -0.9393E-05
   0.0100000  0.1263E+02  0.1007E-02
   0.0200000  0.1263E+02  0.2018E-02
   0.0300000  0.1263E+02  0.3036E-02
   0.0400000  0.1263E+02  0.4032E-02
   0.0500000  0.1263E+02  0.5022E-02
   0.0600000  0.1263E+02  0.6051E-02
   0.0700000  0.1263E+02  0.7050E-02
   0.0800000  0.1264E+02  0.8064E-02
   0.0900000  0.1264E+02  0.9057E-02
   0.1000000  0.1264E+02  0.1010E-01
   0.1100000  0.1264E+02  0.1110E-01
   0.1200000  0.1264E+02  0.1209E-01
   0.1300000  0.1264E+02  0.1312E-01
   0.1400000  0.1264E+02  0.1414E-01
   0.1500000  0.1265E+02  0.1513E-01
   0.1600000  0.1265E+02  0.1616E-01
   0.1700000  0.1265E+02  0.1718E-01
   0.1800000  0.1265E+02  0.1819E-01
   0.1900000  0.1266E+02  0.1921E-01
   0.2000000  0.1266E+02  0.2026E-01
   0.2100000  0.1266E+02  0.2126E-01
   0.2200000  0.1266E+02  0.2228E-01
   0.2300000  0.1267E+02  0.2333E-01
   0.2400000  0.1267E+02  0.2434E-01
   0.2500000  0.1267E+02  0.2536E-01
   0.2600000  0.1268E+02  0.2641E-01
   0.2700000  0.1268E+02  0.2743E-01
   0.2800000  0.1268E+02  0.2846E-01
   0.2900000  0.1269E+02  0.2951E-01
   0.3000000  0.1269E+02  0.3056E-01
   0.3100000  0.1270E+02  0.3161E-01
   0.3200000  0.1270E+02  0.3266E-01
   0.3300000  0.1270E+02  0.3368E-01
   0.3400000  0.1271E+02  0.3474E-01
   0.3500000  0.1271E+02  0.3580E-01
   0.3600000  0.1272E+02  0.3684E-01
   0.3700000  0.1272E+02  0.3792E-01
   0.3800000  0.1273E+02  0.3898E-01
   0.3900000  0.1273E+02  0.4005E-01
   0.4000000  0.1274E+02  0.4112E-01
   0.4100000  0.1274E+02  0.4219E-01
   0.4200000  0.1275E+02  0.4327E-01
   0.4300000  0.1276E+02  0.4434E-01
   0.4400000  0.1276E+02  0.4542E-01
   0.4500000  0.1277E+02  0.4653E-01
   0.4600000  0.1277E+02  0.4761E-01
   0.4700000  0.1278E+02  0.4870E-01
   0.4800000  0.1279E+02  0.4981E-01
   0.4900000  0.1279E+02  0.5091E-01
   0.5000000  0.1280E+02  0.5202E-01
   0.5100000  0.1281E+02  0.5314E-01
   0.5200000  0.1282E+02  0.5425E-01
   0.5300000  0.1282E+02  0.5537E-01
   0.5400000  0.1283E+02  0.5647E-01
   0.5500000  0.1284E+02  0.5763E-01
   0.5599999  0.1285E+02  0.5874E-01
   0.5700000  0.1285E+02  0.5989E-01
   0.5800000  0.1286E+02  0.6103E-01
   0.5900000  0.1287E+02  0.6218E-01
   0.6000000  0.1288E+02  0.6334E-01
   0.6100000  0.1289E+02  0.6452E-01
   0.6200000  0.1290E+02  0.6567E-01
   0.6300000  0.1290E+02  0.6684E-01
   0.6400000  0.1291E+02  0.6801E-01
   0.6500000  0.1292E+02  0.6920E-01
   0.6600000  0.1293E+02  0.7039E-01
   0.6700000  0.1294E+02  0.7158E-01
   0.6800000  0.1295E+02  0.7279E-01
   0.6900000  0.1296E+02  0.7399E-01
   0.7000000  0.1297E+02  0.7518E-01
   0.7100000  0.1298E+02  0.7641E-01
   0.7200000  0.1299E+02  0.7765E-01
   0.7300000  0.1300E+02  0.7889E-01
   0.7399999  0.1301E+02  0.8013E-01
   0.7500000  0.1302E+02  0.8138E-01
   0.7600000  0.1303E+02  0.8262E-01
   0.7700000  0.1304E+02  0.8390E-01
   0.7800000  0.1306E+02  0.8515E-01
   0.7900000  0.1307E+02  0.8643E-01
   0.8000000  0.1308E+02  0.8773E-01
   0.8100000  0.1309E+02  0.8902E-01
   0.8200000  0.1310E+02  0.9031E-01
   0.8300000  0.1311E+02  0.9161E-01
   0.8400000  0.1313E+02  0.9295E-01
   0.8500000  0.1314E+02  0.9428E-01
   0.8600000  0.1315E+02  0.9562E-01
   0.8700000  0.1316E+02  0.9697E-01
   0.8800000  0.1318E+02  0.9832E-01
   0.8899999  0.1319E+02  0.9967E-01
   0.9000000  0.1320E+02  0.1010E+00
   0.9100000  0.1322E+02  0.1024E+00
   0.9200000  0.1323E+02  0.1038E+00
   0.9299999  0.1325E+02  0.1052E+00
   0.9400001  0.1326E+02  0.1066E+00
   0.9500000  0.1327E+02  0.1080E+00
   0.9600000  0.1329E+02  0.1095E+00
   0.9700000  0.1330E+02  0.1109E+00
   0.9800000  0.1332E+02  0.1124E+00
   0.9900000  0.1333E+02  0.1138E+00
   1.0000000  0.1335E+02  0.1153E+00
   1.0100000  0.1336E+02  0.1168E+00
   1.0200000  0.1338E+02  0.1183E+00
   1.0300001  0.1339E+02  0.1198E+00
   1.0400000  0.1341E+02  0.1213E+00
   1.0500000  0.1343E+02  0.1228E+00
   1.0599999  0.1344E+02  0.1244E+00
   1.0699999  0.1346E+02  0.1259E+00
   1.0800000  0.1348E+02  0.1275E+00
   1.0900000  0.1349E+02  0.1291E+00
   1.1000000  0.1351E+02  0.1307E+00
   1.1100000  0.1353E+02  0.1323E+00
   1.1199999  0.1355E+02  0.1339E+00
   1.1300000  0.1356E+02  0.1356E+00
   1.1400000  0.1358E+02  0.1372E+00
   1.1500000  0.1360E+02  0.1389E+00
   1.1600000  0.1362E+02  0.1406E+00
   1.1700001  0.1364E+02  0.1423E+00
   1.1800001  0.1366E+02  0.1440E+00
   1.1899999  0.1368E+02  0.1457E+00
   1.1999999  0.1370E+02  0.1475E+00
   1.2099999  0.1372E+02  0.1492E+00
   1.2200000  0.1374E+02  0.1510E+00
   1.2300000  0.1376E+02  0.1528E+00
   1.2400000  0.1378E+02  0.1546E+00
   1.2500000  0.1380E+02  0.1564E+00
   1.2600000  0.1382E+02  0.1583E+00
   1.2700000  0.1384E+02  0.1601E+00
   1.2800000  0.1386E+02  0.1620E+00
   1.2900000  0.1388E+02  0.1639E+00
   1.3000000  0.1390E+02  0.1659E+00
   1.3100001  0.1393E+02  0.1677E+00
   1.3200001  0.1395E+02  0.1697E+00
   1.3299999  0.1397E+02  0.1717E+00
   1.3399999  0.1399E+02  0.1737E+00
   1.3500000  0.1402E+02  0.1757E+00
   1.3600000  0.1404E+02  0.1777E+00
   1.3700000  0.1407E+02  0.1798E+00
   1.3800000  0.1409E+02  0.1819E+00
   1.3900000  0.1411E+02  0.1840E+00
   1.4000000  0.1414E+02  0.1861E+00
   1.4100000  0.1416E+02  0.1882E+00
   1.4200000  0.1419E+02  0.1904E+00
   1.4299999  0.1421E+02  0.1926E+00
   1.4400001  0.1424E+02  0.1949E+00
   1.4500000  0.1427E+02  0.1971E+00
   1.4600000  0.1429E+02  0.1993E+00
   1.4700000  0.1432E+02  0.2016E+00
   1.4799999  0.1435E+02  0.2040E+00
   1.4900000  0.1437E+02  0.2063E+00
   1.5000000  0.1440E+02  0.2087E+00
   1.5100000  0.1443E+02  0.2111E+00
   1.5200000  0.1446E+02  0.2136E+00
   1.5300000  0.1449E+02  0.2160E+00
   1.5400001  0.1451E+02  0.2185E+00
   1.5500000  0.1454E+02  0.2210E+00
   1.5599999  0.1457E+02  0.2236E+00
   1.5699999  0.1460E+02  0.2261E+00
   1.5800000  0.1463E+02  0.2288E+00
   1.5900000  0.1466E+02  0.2314E+00
   1.6000000  0.1469E+02  0.2341E+00
   1.6100000  0.1473E+02  0.2368E+00
   1.6200000  0.1476E+02  0.2395E+00
   1.6300000  0.1479E+02  0.2423E+00
   1.6400000  0.1482E+02  0.2451E+00
   1.6500000  0.1486E+02  0.2480E+00
   1.6600000  0.1489E+02  0.2509E+00
   1.6700001  0.1492E+02  0.2538E+00
   1.6800001  0.1496E+02  0.2568E+00
   1.6899999  0.1499E+02  0.2598E+00
   1.6999999  0.1502E+02  0.2628E+00
   1.7100000  0.1506E+02  0.2659E+00
   1.7200000  0.1510E+02  0.2691E+00
   1.7300000  0.1513E+02  0.2722E+00
   1.7400000  0.1517E+02  0.2755E+00
   1.7500000  0.1520E+02  0.2787E+00
   1.7600000  0.1524E+02  0.2820E+00
   1.7699999  0.1528E+02  0.2855E+00
   1.7799999  0.1532E+02  0.2888E+00
   1.7900001  0.1536E+02  0.2923E+00
   1.8000001  0.1540E+02  0.2958E+00
   1.8100001  0.1544E+02  0.2994E+00
   1.8200001  0.1547E+02  0.3030E+00
   1.8300000  0.1552E+02  0.3066E+00
   1.8399999  0.1556E+02  0.3103E+00
   1.8499999  0.1560E+02  0.3141E+00
   1.8599999  0.1564E+02  0.3179E+00
   1.8699999  0.1568E+02  0.3218E+00
   1.8800001  0.1573E+02  0.3257E+00
   1.8900001  0.1577E+02  0.3297E+00
   1.9000000  0.1581E+02  0.3339E+00
   1.9100000  0.1586E+02  0.3380E+00
   1.9200000  0.1590E+02  0.3422E+00
   1.9299999  0.1595E+02  0.3465E+00
   1.9399999  0.1600E+02  0.3508E+00
   1.9499999  0.1604E+02  0.3553E+00
   1.9599999  0.1609E+02  0.3597E+00
   1.9700000  0.1614E+02  0.3643E+00
   1.9800000  0.1619E+02  0.3689E+00
   1.9900000  0.1624E+02  0.3736E+00
   2.0000000  0.1629E+02  0.3784E+00
   2.0100000  0.1634E+02  0.3833E+00
   2.0200000  0.1639E+02  0.3882E+00
   2.0300000  0.1644E+02  0.3933E+00
   2.0400000  0.1649E+02  0.3984E+00
   2.0500000  0.1654E+02  0.4037E+00
   2.0600002  0.1660E+02  0.4089E+00
   2.0700002  0.1665E+02  0.4144E+00
   2.0799999  0.1671E+02  0.4199E+00
   2.0899999  0.1676E+02  0.4255E+00
   2.0999999  0.1682E+02  0.4312E+00
   2.1099999  0.1688E+02  0.4370E+00
   2.1199999  0.1694E+02  0.4429E+00
   2.1299999  0.1700E+02  0.4489E+00
   2.1399999  0.1706E+02  0.4551E+00
   2.1500001  0.1712E+02  0.4614E+00
   2.1600001  0.1718E+02  0.4678E+00
   2.1700001  0.1724E+02  0.4743E+00
   2.1800001  0.1731E+02  0.4810E+00
   2.1900001  0.1737E+02  0.4878E+00
   2.2000000  0.1743E+02  0.4947E+00
   2.2100000  0.1750E+02  0.5018E+00
   2.2200000  0.1757E+02  0.5089E+00
   2.2300000  0.1764E+02  0.5163E+00
   2.2399998  0.1770E+02  0.5238E+00
   2.2500000  0.1777E+02  0.5314E+00
   2.2600000  0.1785E+02  0.5393E+00
   2.2700000  0.1792E+02  0.5473E+00
   2.2800000  0.1799E+02  0.5555E+00
   2.2900000  0.1806E+02  0.5639E+00
   2.3000000  0.1814E+02  0.5723E+00
   2.3099999  0.1822E+02  0.5811E+00
   2.3199999  0.1829E+02  0.5900E+00
   2.3299999  0.1837E+02  0.5991E+00
   2.3400002  0.1845E+02  0.6084E+00
   2.3500001  0.1853E+02  0.6180E+00
   2.3600001  0.1862E+02  0.6277E+00
   2.3699999  0.1870E+02  0.6378E+00
   2.3799999  0.1879E+02  0.6480E+00
   2.3899999  0.1887E+02  0.6585E+00
   2.3999999  0.1896E+02  0.6692E+00
   2.4099998  0.1905E+02  0.6802E+00
   2.4199998  0.1914E+02  0.6915E+00
   2.4300001  0.1923E+02  0.7031E+00
   2.4400001  0.1933E+02  0.7149E+00
   2.4500000  0.1942E+02  0.7272E+00
   2.4600000  0.1952E+02  0.7397E+00
   2.4700000  0.1962E+02  0.7524E+00
   2.4800000  0.1972E+02  0.7656E+00
   2.4900000  0.1982E+02  0.7792E+00
   2.5000000  0.1992E+02  0.7931E+00
   2.5100000  0.2003E+02  0.8074E+00
   2.5200000  0.2014E+02  0.8220E+00
   2.5300000  0.2025E+02  0.8371E+00
   2.5400000  0.2036E+02  0.8526E+00
   2.5500000  0.2047E+02  0.8686E+00
   2.5599999  0.2059E+02  0.8852E+00
   2.5699999  0.2070E+02  0.9021E+00
   2.5799999  0.2082E+02  0.9196E+00
   2.5899999  0.2095E+02  0.9376E+00
   2.5999999  0.2107E+02  0.9561E+00
   2.6100001  0.2120E+02  0.9753E+00
   2.6200001  0.2133E+02  0.9951E+00
   2.6300001  0.2146E+02  0.1015E+01
   2.6400001  0.2160E+02  0.1037E+01
   2.6500001  0.2173E+02  0.1058E+01
   2.6599998  0.2187E+02  0.1081E+01
   2.6699998  0.2202E+02  0.1104E+01
   2.6799998  0.2216E+02  0.1128E+01
   2.6899998  0.2231E+02  0.1153E+01
   2.7000000  0.2247E+02  0.1179E+01
   2.7100000  0.2262E+02  0.1206E+01
   2.7200000  0.2278E+02  0.1234E+01
   2.7300000  0.2295E+02  0.1263E+01
   2.7400000  0.2312E+02  0.1293E+01
   2.7500000  0.2329E+02  0.1324E+01
   2.7600000  0.2346E+02  0.1356E+01
   2.7700000  0.2364E+02  0.1390E+01
   2.7800000  0.2383E+02  0.1425E+01
   2.7900002  0.2401E+02  0.1462E+01
   2.8000000  0.2421E+02  0.1500E+01
   2.8099999  0.2441E+02  0.1540E+01
   2.8199999  0.2461E+02  0.1582E+01
   2.8299999  0.2482E+02  0.1625E+01
   2.8399999  0.2503E+02  0.1671E+01
   2.8499999  0.2525E+02  0.1719E+01
   2.8599999  0.2548E+02  0.1769E+01
   2.8699999  0.2571E+02  0.1822E+01
   2.8800001  0.2595E+02  0.1877E+01
   2.8900001  0.2620E+02  0.1936E+01
   2.9000001  0.2645E+02  0.1997E+01
   2.9100001  0.2671E+02  0.2062E+01
   2.9200001  0.2698E+02  0.2130E+01
   2.9300001  0.2726E+02  0.2203E+01
   2.9400001  0.2755E+02  0.2279E+01
   2.9499998  0.2784E+02  0.2361E+01
   2.9599998  0.2815E+02  0.2447E+01
   2.9699998  0.2847E+02  0.2539E+01
   2.9800000  0.2880E+02  0.2638E+01
   2.9900000  0.2914E+02  0.2742E+01
   3.0000000  0.2949E+02  0.2855E+01
   3.0100000  0.2985E+02  0.2976E+01
   3.0200000  0.3023E+02  0.3106E+01
   3.0300000  0.3063E+02  0.3246E+01
   3.0400000  0.3103E+02  0.3397E+01
   3.0500000  0.3146E+02  0.3562E+01
   3.0599999  0.3190E+02  0.3741E+01
   3.0700002  0.3237E+02  0.3936E+01
   3.0800002  0.3285E+02  0.4150E+01
   3.0899999  0.3335E+02  0.4386E+01
   3.0999999  0.3387E+02  0.4645E+01
   3.1099999  0.3441E+02  0.4933E+01
   3.1199999  0.3497E+02  0.5252E+01
   3.1299999  0.3556E+02  0.5608E+01
   3.1399999  0.3616E+02  0.6005E+01
   3.1499999  0.3678E+02  0.6448E+01
   3.1600001  0.3742E+02  0.6943E+01
   3.1700001  0.3806E+02  0.7493E+01
   3.1800001  0.3871E+02  0.8102E+01
   3.1900001  0.3935E+02  0.8773E+01
   3.2000000  0.3999E+02  0.9507E+01
   3.2100000  0.4063E+02  0.1031E+02
   3.2200000  0.4124E+02  0.1118E+02
   3.2300000  0.4184E+02  0.1213E+02
   3.2400000  0.4240E+02  0.1316E+02
   3.2500000  0.4293E+02  0.1426E+02
   3.2600000  0.4342E+02  0.1544E+02
   3.2700000  0.4385E+02  0.1669E+02
   3.2800000  0.4423E+02  0.1804E+02
   3.2900000  0.4455E+02  0.1949E+02
   3.3000000  0.4478E+02  0.2105E+02
   3.3099999  0.4489E+02  0.2273E+02
   3.3199999  0.4483E+02  0.2453E+02
   3.3299999  0.4455E+02  0.2642E+02
   3.3400002  0.4399E+02  0.2837E+02
   3.3500001  0.4313E+02  0.3028E+02
   3.3600001  0.4195E+02  0.3206E+02
   3.3700001  0.4052E+02  0.3362E+02
   3.3799999  0.3892E+02  0.3490E+02
   3.3899999  0.3723E+02  0.3589E+02
   3.3999999  0.3553E+02  0.3661E+02
   3.4100001  0.3387E+02  0.3708E+02
   3.4200001  0.3227E+02  0.3735E+02
   3.4300001  0.3076E+02  0.3743E+02
   3.4400001  0.2936E+02  0.3735E+02
   3.4500000  0.2810E+02  0.3712E+02
   3.4600000  0.2700E+02  0.3678E+02
   3.4700000  0.2607E+02  0.3638E+02
   3.4800000  0.2533E+02  0.3597E+02
   3.4900000  0.2474E+02  0.3559E+02
   3.5000000  0.2427E+02  0.3528E+02
   3.5100000  0.2388E+02  0.3507E+02
   3.5200000  0.2352E+02  0.3495E+02
   3.5300000  0.2315E+02  0.3490E+02
   3.5399997  0.2274E+02  0.3489E+02
   3.5499997  0.2231E+02  0.3487E+02
   3.5599997  0.2188E+02  0.3484E+02
   3.5700002  0.2146E+02  0.3478E+02
   3.5800002  0.2107E+02  0.3471E+02
   3.5900002  0.2071E+02  0.3463E+02
   3.6000001  0.2040E+02  0.3457E+02
   3.6100001  0.2012E+02  0.3453E+02
   3.6200001  0.1986E+02  0.3452E+02
   3.6300001  0.1963E+02  0.3454E+02
   3.6400001  0.1941E+02  0.3462E+02
   3.6500001  0.1917E+02  0.3474E+02
   3.6600001  0.1891E+02  0.3493E+02
   3.6699998  0.1859E+02  0.3514E+02
   3.6799998  0.1821E+02  0.3537E+02
   3.6899998  0.1775E+02  0.3558E+02
   3.6999998  0.1725E+02  0.3575E+02
   3.7099998  0.1671E+02  0.3585E+02
   3.7199998  0.1617E+02  0.3590E+02
   3.7299998  0.1565E+02  0.3590E+02
   3.7399998  0.1515E+02  0.3587E+02
   3.7500002  0.1466E+02  0.3583E+02
   3.7600002  0.1418E+02  0.3579E+02
   3.7700002  0.1370E+02  0.3572E+02
   3.7800002  0.1320E+02  0.3564E+02
   3.7900002  0.1269E+02  0.3551E+02
   3.8000000  0.1218E+02  0.3533E+02
   3.8099999  0.1168E+02  0.3509E+02
   3.8199999  0.1122E+02  0.3478E+02
   3.8299999  0.1082E+02  0.3441E+02
   3.8399999  0.1051E+02  0.3399E+02
   3.8499999  0.1030E+02  0.3357E+02
   3.8599999  0.1018E+02  0.3316E+02
   3.8699999  0.1016E+02  0.3279E+02
   3.8799999  0.1019E+02  0.3249E+02
   3.8899999  0.1026E+02  0.3226E+02
   3.8999999  0.1034E+02  0.3211E+02
   3.9099998  0.1041E+02  0.3201E+02
   3.9199998  0.1045E+02  0.3195E+02
   3.9299998  0.1047E+02  0.3189E+02
   3.9400001  0.1049E+02  0.3182E+02
   3.9500000  0.1053E+02  0.3173E+02
   3.9600000  0.1061E+02  0.3163E+02
   3.9700000  0.1075E+02  0.3156E+02
   3.9800000  0.1096E+02  0.3152E+02
   3.9900000  0.1122E+02  0.3156E+02
   4.0000000  0.1152E+02  0.3168E+02
   4.0100002  0.1182E+02  0.3190E+02
   4.0200000  0.1211E+02  0.3222E+02
   4.0299997  0.1236E+02  0.3262E+02
   4.0400000  0.1256E+02  0.3310E+02
   4.0499997  0.1272E+02  0.3364E+02
   4.0599999  0.1282E+02  0.3423E+02
   4.0699997  0.1286E+02  0.3489E+02
   4.0799999  0.1283E+02  0.3560E+02
   4.0899997  0.1272E+02  0.3637E+02
   4.0999999  0.1250E+02  0.3716E+02
   4.1099997  0.1218E+02  0.3797E+02
   4.1200004  0.1174E+02  0.3875E+02
   4.1300001  0.1122E+02  0.3949E+02
   4.1400003  0.1063E+02  0.4017E+02
   4.1500001  0.1001E+02  0.4081E+02
   4.1599998  0.9371E+01  0.4142E+02
   4.1700001  0.8705E+01  0.4203E+02
   4.1799998  0.7995E+01  0.4265E+02
   4.1900001  0.7215E+01  0.4328E+02
   4.1999998  0.6342E+01  0.4390E+02
   4.2100000  0.5362E+01  0.4450E+02
   4.2199998  0.4273E+01  0.4503E+02
   4.2300000  0.3092E+01  0.4547E+02
   4.2399998  0.1842E+01  0.4580E+02
   4.2500000  0.5528E+00  0.4600E+02
   4.2599998 -0.7522E+00  0.4610E+02
   4.2700000 -0.2057E+01  0.4608E+02
   4.2799997 -0.3351E+01  0.4597E+02
   4.2900000 -0.4625E+01  0.4577E+02
   4.3000002 -0.5876E+01  0.4549E+02
   4.3099999 -0.7100E+01  0.4513E+02
   4.3200002 -0.8293E+01  0.4471E+02
   4.3299999 -0.9459E+01  0.4423E+02
   4.3400002 -0.1060E+02  0.4369E+02
   4.3499999 -0.1174E+02  0.4310E+02
   4.3600001 -0.1288E+02  0.4242E+02
   4.3699999 -0.1400E+02  0.4164E+02
   4.3800001 -0.1507E+02  0.4073E+02
   4.3899999 -0.1605E+02  0.3970E+02
   4.4000001 -0.1690E+02  0.3859E+02
   4.4099998 -0.1760E+02  0.3742E+02
   4.4200001 -0.1816E+02  0.3625E+02
   4.4299998 -0.1860E+02  0.3510E+02
   4.4400001 -0.1896E+02  0.3400E+02
   4.4499998 -0.1926E+02  0.3292E+02
   4.4600000 -0.1950E+02  0.3186E+02
   4.4699998 -0.1967E+02  0.3081E+02
   4.4799995 -0.1976E+02  0.2977E+02
   4.4900002 -0.1978E+02  0.2877E+02
   4.5000000 -0.1973E+02  0.2782E+02
   4.5100002 -0.1963E+02  0.2694E+02
   4.5200000 -0.1949E+02  0.2612E+02
   4.5300002 -0.1933E+02  0.2536E+02
   4.5400000 -0.1918E+02  0.2465E+02
   4.5500002 -0.1904E+02  0.2398E+02
   4.5599999 -0.1891E+02  0.2332E+02
   4.5700002 -0.1877E+02  0.2267E+02
   4.5799999 -0.1862E+02  0.2201E+02
   4.5900002 -0.1842E+02  0.2136E+02
   4.5999999 -0.1819E+02  0.2073E+02
   4.6099997 -0.1791E+02  0.2015E+02
   4.6199999 -0.1762E+02  0.1962E+02
   4.6299996 -0.1731E+02  0.1914E+02
   4.6399999 -0.1702E+02  0.1872E+02
   4.6499996 -0.1674E+02  0.1834E+02
   4.6599998 -0.1651E+02  0.1799E+02
   4.6700001 -0.1631E+02  0.1766E+02
   4.6800003 -0.1614E+02  0.1732E+02
   4.6900001 -0.1600E+02  0.1696E+02
   4.7000003 -0.1587E+02  0.1658E+02
   4.7100000 -0.1574E+02  0.1615E+02
   4.7200003 -0.1558E+02  0.1570E+02
   4.7300000 -0.1537E+02  0.1523E+02
   4.7399998 -0.1512E+02  0.1474E+02
   4.7500000 -0.1481E+02  0.1428E+02
   4.7599998 -0.1446E+02  0.1383E+02
   4.7700000 -0.1406E+02  0.1343E+02
   4.7799997 -0.1363E+02  0.1308E+02
   4.7900000 -0.1318E+02  0.1277E+02
   4.7999997 -0.1272E+02  0.1252E+02
   4.8099999 -0.1226E+02  0.1232E+02
   4.8199997 -0.1180E+02  0.1216E+02
   4.8299999 -0.1136E+02  0.1204E+02
   4.8399997 -0.1092E+02  0.1196E+02
   4.8500004 -0.1050E+02  0.1192E+02
   4.8600001 -0.1010E+02  0.1192E+02
   4.8699999 -0.9720E+01  0.1194E+02
   4.8800001 -0.9361E+01  0.1199E+02
   4.8899999 -0.9022E+01  0.1207E+02
   4.9000001 -0.8706E+01  0.1218E+02
   4.9099998 -0.8415E+01  0.1231E+02
   4.9200001 -0.8158E+01  0.1247E+02
   4.9299998 -0.7940E+01  0.1265E+02
   4.9400001 -0.7768E+01  0.1284E+02
   4.9499998 -0.7643E+01  0.1304E+02
   4.9600000 -0.7561E+01  0.1322E+02
   4.9699998 -0.7513E+01  0.1339E+02
   4.9800000 -0.7489E+01  0.1353E+02
   4.9899998 -0.7480E+01  0.1365E+02
   5.0000000 -0.7481E+01  0.1376E+02
   5.0099998 -0.7488E+01  0.1386E+02
   5.0200000 -0.7504E+01  0.1395E+02
   5.0300002 -0.7532E+01  0.1403E+02
   5.0400000 -0.7578E+01  0.1412E+02
   5.0500002 -0.7644E+01  0.1419E+02
   5.0599999 -0.7729E+01  0.1424E+02
   5.0700002 -0.7828E+01  0.1426E+02
   5.0799999 -0.7930E+01  0.1426E+02
   5.0900002 -0.8025E+01  0.1422E+02
   5.0999999 -0.8103E+01  0.1416E+02
   5.1100001 -0.8159E+01  0.1409E+02
   5.1199999 -0.8192E+01  0.1402E+02
   5.1300001 -0.8205E+01  0.1395E+02
   5.1399999 -0.8203E+01  0.1390E+02
   5.1500001 -0.8196E+01  0.1386E+02
   5.1599998 -0.8194E+01  0.1385E+02
   5.1700001 -0.8204E+01  0.1384E+02
   5.1799998 -0.8230E+01  0.1385E+02
   5.1899996 -0.8274E+01  0.1385E+02
   5.1999998 -0.8333E+01  0.1385E+02
   5.2099996 -0.8403E+01  0.1384E+02
   5.2200003 -0.8481E+01  0.1381E+02
   5.2300000 -0.8564E+01  0.1378E+02
   5.2400002 -0.8652E+01  0.1375E+02
   5.2500000 -0.8747E+01  0.1370E+02
   5.2600002 -0.8848E+01  0.1364E+02
   5.2700000 -0.8956E+01  0.1357E+02
   5.2800002 -0.9067E+01  0.1348E+02
   5.2900000 -0.9181E+01  0.1338E+02
   5.3000002 -0.9293E+01  0.1326E+02
   5.3099999 -0.9398E+01  0.1311E+02
   5.3199997 -0.9492E+01  0.1294E+02
   5.3299999 -0.9564E+01  0.1274E+02
   5.3399997 -0.9606E+01  0.1253E+02
   5.3499999 -0.9613E+01  0.1232E+02
   5.3599997 -0.9582E+01  0.1210E+02
   5.3699999 -0.9516E+01  0.1191E+02
   5.3799996 -0.9424E+01  0.1174E+02
   5.3899999 -0.9316E+01  0.1161E+02
   5.4000001 -0.9204E+01  0.1151E+02
   5.4100003 -0.9099E+01  0.1144E+02
   5.4200001 -0.9008E+01  0.1140E+02
   5.4300003 -0.8936E+01  0.1137E+02
   5.4400001 -0.8886E+01  0.1136E+02
   5.4499998 -0.8856E+01  0.1135E+02
   5.4600000 -0.8843E+01  0.1134E+02
   5.4699998 -0.8846E+01  0.1133E+02
   5.4800000 -0.8861E+01  0.1131E+02
   5.4899998 -0.8886E+01  0.1128E+02
   5.5000000 -0.8920E+01  0.1125E+02
   5.5099998 -0.8960E+01  0.1121E+02
   5.5200000 -0.9003E+01  0.1115E+02
   5.5299997 -0.9048E+01  0.1109E+02
   5.5400000 -0.9093E+01  0.1102E+02
   5.5499997 -0.9137E+01  0.1095E+02
   5.5599999 -0.9182E+01  0.1087E+02
   5.5699997 -0.9229E+01  0.1078E+02
   5.5800004 -0.9278E+01  0.1069E+02
   5.5900002 -0.9330E+01  0.1059E+02
   5.5999999 -0.9384E+01  0.1048E+02
   5.6100001 -0.9437E+01  0.1035E+02
   5.6199999 -0.9484E+01  0.1020E+02
   5.6300001 -0.9518E+01  0.1003E+02
   5.6399999 -0.9529E+01  0.9844E+01
   5.6500001 -0.9508E+01  0.9648E+01
   5.6599998 -0.9452E+01  0.9453E+01
   5.6700001 -0.9360E+01  0.9273E+01
   5.6799998 -0.9240E+01  0.9120E+01
   5.6900001 -0.9101E+01  0.9002E+01
   5.6999998 -0.8956E+01  0.8922E+01
   5.7100000 -0.8819E+01  0.8881E+01
   5.7199998 -0.8701E+01  0.8870E+01
   5.7300000 -0.8610E+01  0.8883E+01
   5.7399998 -0.8549E+01  0.8906E+01
   5.7500000 -0.8515E+01  0.8929E+01
   5.7600002 -0.8505E+01  0.8946E+01
   5.7700000 -0.8511E+01  0.8951E+01
   5.7800002 -0.8527E+01  0.8945E+01
   5.7900000 -0.8549E+01  0.8929E+01
   5.8000002 -0.8576E+01  0.8908E+01
   5.8099999 -0.8608E+01  0.8883E+01
   5.8200002 -0.8650E+01  0.8853E+01
   5.8299999 -0.8702E+01  0.8815E+01
   5.8400002 -0.8764E+01  0.8765E+01
   5.8499999 -0.8834E+01  0.8699E+01
   5.8600001 -0.8906E+01  0.8614E+01
   5.8699999 -0.8977E+01  0.8510E+01
   5.8800001 -0.9041E+01  0.8388E+01
   5.8899999 -0.9095E+01  0.8249E+01
   5.8999996 -0.9137E+01  0.8097E+01
   5.9099998 -0.9162E+01  0.7933E+01
   5.9199996 -0.9171E+01  0.7762E+01
   5.9299998 -0.9163E+01  0.7585E+01
   5.9399996 -0.9137E+01  0.7407E+01
   5.9500003 -0.9092E+01  0.7228E+01
   5.9600000 -0.9030E+01  0.7053E+01
   5.9700003 -0.8949E+01  0.6884E+01
   5.9800000 -0.8851E+01  0.6725E+01
   5.9900002 -0.8739E+01  0.6580E+01
   6.0000000 -0.8615E+01  0.6451E+01
   6.0100002 -0.8484E+01  0.6339E+01
   6.0200000 -0.8351E+01  0.6246E+01
   6.0300002 -0.8219E+01  0.6168E+01
   6.0400000 -0.8092E+01  0.6104E+01
   6.0499997 -0.7968E+01  0.6049E+01
   6.0599999 -0.7849E+01  0.6003E+01
   6.0699997 -0.7733E+01  0.5965E+01
   6.0799999 -0.7620E+01  0.5935E+01
   6.0899997 -0.7512E+01  0.5913E+01
   6.0999999 -0.7410E+01  0.5899E+01
   6.1099997 -0.7316E+01  0.5892E+01
   6.1199999 -0.7232E+01  0.5889E+01
   6.1300001 -0.7157E+01  0.5886E+01
   6.1400003 -0.7090E+01  0.5881E+01
   6.1500001 -0.7027E+01  0.5871E+01
   6.1600003 -0.6965E+01  0.5857E+01
   6.1700001 -0.6902E+01  0.5839E+01
   6.1799998 -0.6835E+01  0.5820E+01
   6.1900001 -0.6764E+01  0.5802E+01
   6.1999998 -0.6688E+01  0.5789E+01
   6.2100000 -0.6608E+01  0.5782E+01
   6.2199998 -0.6528E+01  0.5784E+01
   6.2300000 -0.6450E+01  0.5794E+01
   6.2399998 -0.6377E+01  0.5813E+01
   6.2500000 -0.6310E+01  0.5837E+01
   6.2599998 -0.6248E+01  0.5865E+01
   6.2700000 -0.6191E+01  0.5897E+01
   6.2799997 -0.6138E+01  0.5933E+01
   6.2900000 -0.6088E+01  0.5974E+01
   6.2999997 -0.6045E+01  0.6024E+01
   6.3099999 -0.6011E+01  0.6081E+01
   6.3200002 -0.5991E+01  0.6146E+01
   6.3299999 -0.5987E+01  0.6214E+01
   6.3400002 -0.6003E+01  0.6280E+01
   6.3499999 -0.6038E+01  0.6339E+01
   6.3600001 -0.6089E+01  0.6384E+01
   6.3699999 -0.6152E+01  0.6412E+01
   6.3800001 -0.6221E+01  0.6420E+01
   6.3899999 -0.6289E+01  0.6409E+01
   6.4000001 -0.6352E+01  0.6381E+01
   6.4099998 -0.6407E+01  0.6341E+01
   6.4200001 -0.6453E+01  0.6291E+01
   6.4299998 -0.6490E+01  0.6235E+01
   6.4400001 -0.6519E+01  0.6175E+01
   6.4499998 -0.6540E+01  0.6110E+01
   6.4600000 -0.6553E+01  0.6042E+01
   6.4699998 -0.6557E+01  0.5972E+01
   6.4800000 -0.6552E+01  0.5902E+01
   6.4899998 -0.6537E+01  0.5833E+01
   6.5000000 -0.6514E+01  0.5767E+01
   6.5100002 -0.6482E+01  0.5707E+01
   6.5200000 -0.6444E+01  0.5654E+01
   6.5300002 -0.6400E+01  0.5609E+01
   6.5400000 -0.6355E+01  0.5574E+01
   6.5500002 -0.6310E+01  0.5549E+01
   6.5599999 -0.6267E+01  0.5532E+01
   6.5700002 -0.6227E+01  0.5523E+01
   6.5799999 -0.6193E+01  0.5521E+01
   6.5900002 -0.6166E+01  0.5525E+01
   6.5999999 -0.6146E+01  0.5533E+01
   6.6100001 -0.6134E+01  0.5544E+01
   6.6199999 -0.6131E+01  0.5556E+01
   6.6299996 -0.6137E+01  0.5570E+01
   6.6399999 -0.6155E+01  0.5582E+01
   6.6499996 -0.6184E+01  0.5589E+01
   6.6599998 -0.6224E+01  0.5589E+01
   6.6699996 -0.6273E+01  0.5576E+01
   6.6800003 -0.6327E+01  0.5551E+01
   6.6900001 -0.6384E+01  0.5511E+01
   6.7000003 -0.6440E+01  0.5456E+01
   6.7100000 -0.6492E+01  0.5386E+01
   6.7200003 -0.6538E+01  0.5302E+01
   6.7300000 -0.6572E+01  0.5204E+01
   6.7400002 -0.6593E+01  0.5094E+01
   6.7500000 -0.6596E+01  0.4977E+01
   6.7599998 -0.6580E+01  0.4857E+01
   6.7700000 -0.6544E+01  0.4738E+01
   6.7799997 -0.6490E+01  0.4628E+01
   6.7900000 -0.6422E+01  0.4528E+01
   6.7999997 -0.6344E+01  0.4442E+01
   6.8100004 -0.6259E+01  0.4370E+01
   6.8200002 -0.6172E+01  0.4310E+01
   6.8300004 -0.6082E+01  0.4261E+01
   6.8400002 -0.5992E+01  0.4223E+01
   6.8500004 -0.5901E+01  0.4196E+01
   6.8600001 -0.5810E+01  0.4179E+01
   6.8700004 -0.5721E+01  0.4174E+01
   6.8800001 -0.5636E+01  0.4181E+01
   6.8899999 -0.5558E+01  0.4200E+01
   6.9000001 -0.5489E+01  0.4230E+01
   6.9099998 -0.5433E+01  0.4268E+01
   6.9200001 -0.5390E+01  0.4311E+01
   6.9299998 -0.5363E+01  0.4355E+01
   6.9400001 -0.5349E+01  0.4397E+01
   6.9499998 -0.5347E+01  0.4432E+01
   6.9600000 -0.5355E+01  0.4459E+01
   6.9699998 -0.5370E+01  0.4476E+01
   6.9800000 -0.5388E+01  0.4482E+01
   6.9899998 -0.5405E+01  0.4477E+01
   7.0000000 -0.5419E+01  0.4464E+01
