# macroscopic dielectric function
# with local fields
# testparticle  RPA                 
# npwmat =   59  npwwfn =  283  nbands =    8  lomo =    2  nkibz =   60  nkbz = 1372
# energy range   0.00  7.00 [eV]
# lorentzian broadening =   0.0750 [eV]
# dsf factor     0.000000 [a.u.] 
# unit cell volume    266.630737 [a.u.] 
# G = (  0,  0,  0) [r.l.u.]
# G = ( 0.000000, 0.000000, 0.000000) [c.c.]
# G = ( 0.000000, 0.000000, 0.000000) [c.c. units of 2pi/a =  0.614974 a.u.]
# q -> 0 average over the three cartesian directions
# omega       eps_1       eps_2
   0.0000000  0.1243E+02  0.2763E-07
   0.0100000  0.1243E+02  0.1206E-02
   0.0200000  0.1243E+02  0.2413E-02
   0.0300000  0.1243E+02  0.3619E-02
   0.0400000  0.1243E+02  0.4826E-02
   0.0500000  0.1244E+02  0.6033E-02
   0.0600000  0.1244E+02  0.7241E-02
   0.0700000  0.1244E+02  0.8449E-02
   0.0800000  0.1244E+02  0.9659E-02
   0.0900000  0.1244E+02  0.1087E-01
   0.1000000  0.1244E+02  0.1208E-01
   0.1100000  0.1244E+02  0.1329E-01
   0.1200000  0.1244E+02  0.1451E-01
   0.1300000  0.1245E+02  0.1572E-01
   0.1400000  0.1245E+02  0.1694E-01
   0.1500000  0.1245E+02  0.1816E-01
   0.1600000  0.1245E+02  0.1938E-01
   0.1700000  0.1246E+02  0.2060E-01
   0.1800000  0.1246E+02  0.2183E-01
   0.1900000  0.1246E+02  0.2306E-01
   0.2000000  0.1247E+02  0.2429E-01
   0.2100000  0.1247E+02  0.2552E-01
   0.2200000  0.1247E+02  0.2675E-01
   0.2300000  0.1248E+02  0.2799E-01
   0.2400000  0.1248E+02  0.2923E-01
   0.2500000  0.1248E+02  0.3048E-01
   0.2600000  0.1249E+02  0.3172E-01
   0.2700000  0.1249E+02  0.3297E-01
   0.2800000  0.1250E+02  0.3423E-01
   0.2900000  0.1250E+02  0.3548E-01
   0.3000000  0.1251E+02  0.3674E-01
   0.3100000  0.1251E+02  0.3801E-01
   0.3200000  0.1252E+02  0.3928E-01
   0.3300000  0.1252E+02  0.4055E-01
   0.3400000  0.1253E+02  0.4183E-01
   0.3500000  0.1253E+02  0.4311E-01
   0.3600000  0.1254E+02  0.4439E-01
   0.3700000  0.1254E+02  0.4568E-01
   0.3800000  0.1255E+02  0.4698E-01
   0.3900000  0.1256E+02  0.4828E-01
   0.4000000  0.1256E+02  0.4959E-01
   0.4100000  0.1257E+02  0.5090E-01
   0.4200000  0.1258E+02  0.5221E-01
   0.4300000  0.1258E+02  0.5354E-01
   0.4400000  0.1259E+02  0.5486E-01
   0.4500000  0.1260E+02  0.5620E-01
   0.4600000  0.1261E+02  0.5754E-01
   0.4700000  0.1261E+02  0.5888E-01
   0.4800000  0.1262E+02  0.6024E-01
   0.4900000  0.1263E+02  0.6160E-01
   0.5000000  0.1264E+02  0.6296E-01
   0.5100000  0.1265E+02  0.6434E-01
   0.5200000  0.1266E+02  0.6572E-01
   0.5300000  0.1266E+02  0.6710E-01
   0.5400000  0.1267E+02  0.6850E-01
   0.5500000  0.1268E+02  0.6990E-01
   0.5599999  0.1269E+02  0.7131E-01
   0.5700000  0.1270E+02  0.7273E-01
   0.5800000  0.1271E+02  0.7416E-01
   0.5900000  0.1272E+02  0.7559E-01
   0.6000000  0.1273E+02  0.7704E-01
   0.6100000  0.1274E+02  0.7849E-01
   0.6200000  0.1275E+02  0.7995E-01
   0.6300000  0.1276E+02  0.8142E-01
   0.6400000  0.1277E+02  0.8290E-01
   0.6500000  0.1279E+02  0.8439E-01
   0.6600000  0.1280E+02  0.8589E-01
   0.6700000  0.1281E+02  0.8740E-01
   0.6800000  0.1282E+02  0.8892E-01
   0.6900000  0.1283E+02  0.9045E-01
   0.7000000  0.1284E+02  0.9200E-01
   0.7100000  0.1286E+02  0.9355E-01
   0.7200000  0.1287E+02  0.9511E-01
   0.7300000  0.1288E+02  0.9669E-01
   0.7399999  0.1289E+02  0.9827E-01
   0.7500000  0.1291E+02  0.9987E-01
   0.7600000  0.1292E+02  0.1015E+00
   0.7700000  0.1293E+02  0.1031E+00
   0.7800000  0.1295E+02  0.1047E+00
   0.7900000  0.1296E+02  0.1064E+00
   0.8000000  0.1298E+02  0.1081E+00
   0.8100000  0.1299E+02  0.1097E+00
   0.8200000  0.1301E+02  0.1114E+00
   0.8300000  0.1302E+02  0.1131E+00
   0.8400000  0.1304E+02  0.1148E+00
   0.8500000  0.1305E+02  0.1166E+00
   0.8600000  0.1307E+02  0.1183E+00
   0.8700000  0.1308E+02  0.1201E+00
   0.8800000  0.1310E+02  0.1219E+00
   0.8899999  0.1312E+02  0.1237E+00
   0.9000000  0.1313E+02  0.1255E+00
   0.9100000  0.1315E+02  0.1273E+00
   0.9200000  0.1317E+02  0.1292E+00
   0.9299999  0.1318E+02  0.1310E+00
   0.9400001  0.1320E+02  0.1329E+00
   0.9500000  0.1322E+02  0.1348E+00
   0.9600000  0.1324E+02  0.1367E+00
   0.9700000  0.1325E+02  0.1387E+00
   0.9800000  0.1327E+02  0.1406E+00
   0.9900000  0.1329E+02  0.1426E+00
   1.0000000  0.1331E+02  0.1446E+00
   1.0100000  0.1333E+02  0.1466E+00
   1.0200000  0.1335E+02  0.1486E+00
   1.0300001  0.1337E+02  0.1507E+00
   1.0400000  0.1339E+02  0.1528E+00
   1.0500000  0.1341E+02  0.1549E+00
   1.0599999  0.1343E+02  0.1570E+00
   1.0699999  0.1345E+02  0.1592E+00
   1.0800000  0.1347E+02  0.1613E+00
   1.0900000  0.1350E+02  0.1635E+00
   1.1000000  0.1352E+02  0.1658E+00
   1.1100000  0.1354E+02  0.1680E+00
   1.1199999  0.1356E+02  0.1703E+00
   1.1300000  0.1358E+02  0.1726E+00
   1.1400000  0.1361E+02  0.1749E+00
   1.1500000  0.1363E+02  0.1773E+00
   1.1600000  0.1365E+02  0.1797E+00
   1.1700001  0.1368E+02  0.1821E+00
   1.1800001  0.1370E+02  0.1845E+00
   1.1899999  0.1373E+02  0.1870E+00
   1.1999999  0.1375E+02  0.1895E+00
   1.2099999  0.1378E+02  0.1920E+00
   1.2200000  0.1380E+02  0.1946E+00
   1.2300000  0.1383E+02  0.1972E+00
   1.2400000  0.1386E+02  0.1998E+00
   1.2500000  0.1388E+02  0.2025E+00
   1.2600000  0.1391E+02  0.2052E+00
   1.2700000  0.1394E+02  0.2080E+00
   1.2800000  0.1397E+02  0.2107E+00
   1.2900000  0.1399E+02  0.2136E+00
   1.3000000  0.1402E+02  0.2164E+00
   1.3100001  0.1405E+02  0.2193E+00
   1.3200001  0.1408E+02  0.2223E+00
   1.3299999  0.1411E+02  0.2252E+00
   1.3399999  0.1414E+02  0.2283E+00
   1.3500000  0.1417E+02  0.2313E+00
   1.3600000  0.1420E+02  0.2344E+00
   1.3700000  0.1423E+02  0.2376E+00
   1.3800000  0.1427E+02  0.2408E+00
   1.3900000  0.1430E+02  0.2441E+00
   1.4000000  0.1433E+02  0.2474E+00
   1.4100000  0.1436E+02  0.2507E+00
   1.4200000  0.1440E+02  0.2541E+00
   1.4299999  0.1443E+02  0.2576E+00
   1.4400001  0.1446E+02  0.2611E+00
   1.4500000  0.1450E+02  0.2647E+00
   1.4600000  0.1454E+02  0.2683E+00
   1.4700000  0.1457E+02  0.2720E+00
   1.4799999  0.1461E+02  0.2758E+00
   1.4900000  0.1464E+02  0.2796E+00
   1.5000000  0.1468E+02  0.2835E+00
   1.5100000  0.1472E+02  0.2874E+00
   1.5200000  0.1476E+02  0.2914E+00
   1.5300000  0.1480E+02  0.2955E+00
   1.5400001  0.1484E+02  0.2997E+00
   1.5500000  0.1488E+02  0.3039E+00
   1.5599999  0.1492E+02  0.3082E+00
   1.5699999  0.1496E+02  0.3126E+00
   1.5800000  0.1500E+02  0.3171E+00
   1.5900000  0.1504E+02  0.3216E+00
   1.6000000  0.1509E+02  0.3262E+00
   1.6100000  0.1513E+02  0.3310E+00
   1.6200000  0.1517E+02  0.3358E+00
   1.6300000  0.1522E+02  0.3407E+00
   1.6400000  0.1526E+02  0.3457E+00
   1.6500000  0.1531E+02  0.3508E+00
   1.6600000  0.1536E+02  0.3560E+00
   1.6700001  0.1540E+02  0.3613E+00
   1.6800001  0.1545E+02  0.3667E+00
   1.6899999  0.1550E+02  0.3723E+00
   1.6999999  0.1555E+02  0.3779E+00
   1.7100000  0.1560E+02  0.3837E+00
   1.7200000  0.1565E+02  0.3896E+00
   1.7300000  0.1570E+02  0.3956E+00
   1.7400000  0.1576E+02  0.4017E+00
   1.7500000  0.1581E+02  0.4080E+00
   1.7600000  0.1587E+02  0.4145E+00
   1.7699999  0.1592E+02  0.4210E+00
   1.7799999  0.1598E+02  0.4278E+00
   1.7900001  0.1603E+02  0.4347E+00
   1.8000001  0.1609E+02  0.4417E+00
   1.8100001  0.1615E+02  0.4489E+00
   1.8200001  0.1621E+02  0.4563E+00
   1.8300000  0.1627E+02  0.4639E+00
   1.8399999  0.1633E+02  0.4717E+00
   1.8499999  0.1640E+02  0.4796E+00
   1.8599999  0.1646E+02  0.4878E+00
   1.8699999  0.1653E+02  0.4962E+00
   1.8800001  0.1659E+02  0.5048E+00
   1.8900001  0.1666E+02  0.5136E+00
   1.9000000  0.1673E+02  0.5227E+00
   1.9100000  0.1680E+02  0.5320E+00
   1.9200000  0.1687E+02  0.5416E+00
   1.9299999  0.1694E+02  0.5515E+00
   1.9399999  0.1701E+02  0.5616E+00
   1.9499999  0.1709E+02  0.5721E+00
   1.9599999  0.1716E+02  0.5828E+00
   1.9700000  0.1724E+02  0.5939E+00
   1.9800000  0.1732E+02  0.6053E+00
   1.9900000  0.1740E+02  0.6171E+00
   2.0000000  0.1748E+02  0.6292E+00
   2.0100000  0.1757E+02  0.6418E+00
   2.0200000  0.1765E+02  0.6547E+00
   2.0300000  0.1774E+02  0.6681E+00
   2.0400000  0.1783E+02  0.6819E+00
   2.0500000  0.1792E+02  0.6963E+00
   2.0600002  0.1801E+02  0.7111E+00
   2.0700002  0.1811E+02  0.7264E+00
   2.0799999  0.1820E+02  0.7424E+00
   2.0899999  0.1830E+02  0.7589E+00
   2.0999999  0.1840E+02  0.7760E+00
   2.1099999  0.1851E+02  0.7938E+00
   2.1199999  0.1861E+02  0.8123E+00
   2.1299999  0.1872E+02  0.8316E+00
   2.1399999  0.1883E+02  0.8517E+00
   2.1500001  0.1894E+02  0.8726E+00
   2.1600001  0.1906E+02  0.8944E+00
   2.1700001  0.1917E+02  0.9172E+00
   2.1800001  0.1930E+02  0.9411E+00
   2.1900001  0.1942E+02  0.9660E+00
   2.2000000  0.1955E+02  0.9922E+00
   2.2100000  0.1968E+02  0.1020E+01
   2.2200000  0.1981E+02  0.1048E+01
   2.2300000  0.1995E+02  0.1079E+01
   2.2399998  0.2009E+02  0.1111E+01
   2.2500000  0.2024E+02  0.1144E+01
   2.2600000  0.2039E+02  0.1180E+01
   2.2700000  0.2054E+02  0.1218E+01
   2.2800000  0.2070E+02  0.1258E+01
   2.2900000  0.2086E+02  0.1300E+01
   2.3000000  0.2103E+02  0.1345E+01
   2.3099999  0.2121E+02  0.1393E+01
   2.3199999  0.2139E+02  0.1445E+01
   2.3299999  0.2157E+02  0.1500E+01
   2.3400002  0.2176E+02  0.1560E+01
   2.3500001  0.2196E+02  0.1624E+01
   2.3600001  0.2217E+02  0.1693E+01
   2.3699999  0.2238E+02  0.1768E+01
   2.3799999  0.2260E+02  0.1850E+01
   2.3899999  0.2283E+02  0.1940E+01
   2.3999999  0.2306E+02  0.2038E+01
   2.4099998  0.2331E+02  0.2146E+01
   2.4199998  0.2356E+02  0.2266E+01
   2.4300001  0.2382E+02  0.2399E+01
   2.4400001  0.2409E+02  0.2547E+01
   2.4500000  0.2436E+02  0.2712E+01
   2.4600000  0.2464E+02  0.2895E+01
   2.4700000  0.2492E+02  0.3099E+01
   2.4800000  0.2520E+02  0.3323E+01
   2.4900000  0.2547E+02  0.3567E+01
   2.5000000  0.2573E+02  0.3827E+01
   2.5100000  0.2598E+02  0.4096E+01
   2.5200000  0.2622E+02  0.4367E+01
   2.5300000  0.2647E+02  0.4634E+01
   2.5400000  0.2672E+02  0.4899E+01
   2.5500000  0.2700E+02  0.5170E+01
   2.5599999  0.2732E+02  0.5461E+01
   2.5699999  0.2766E+02  0.5789E+01
   2.5799999  0.2803E+02  0.6174E+01
   2.5899999  0.2842E+02  0.6629E+01
   2.5999999  0.2880E+02  0.7165E+01
   2.6100001  0.2915E+02  0.7788E+01
   2.6200001  0.2946E+02  0.8499E+01
   2.6300001  0.2970E+02  0.9292E+01
   2.6400001  0.2984E+02  0.1015E+02
   2.6500001  0.2987E+02  0.1107E+02
   2.6599998  0.2979E+02  0.1201E+02
   2.6699998  0.2956E+02  0.1296E+02
   2.6799998  0.2919E+02  0.1390E+02
   2.6899998  0.2867E+02  0.1478E+02
   2.7000000  0.2800E+02  0.1557E+02
   2.7100000  0.2720E+02  0.1621E+02
   2.7200000  0.2632E+02  0.1668E+02
   2.7300000  0.2542E+02  0.1694E+02
   2.7400000  0.2455E+02  0.1700E+02
   2.7500000  0.2378E+02  0.1688E+02
   2.7600000  0.2317E+02  0.1664E+02
   2.7700000  0.2272E+02  0.1634E+02
   2.7800000  0.2242E+02  0.1605E+02
   2.7900002  0.2224E+02  0.1580E+02
   2.8000000  0.2213E+02  0.1560E+02
   2.8099999  0.2207E+02  0.1546E+02
   2.8199999  0.2206E+02  0.1536E+02
   2.8299999  0.2208E+02  0.1529E+02
   2.8399999  0.2214E+02  0.1528E+02
   2.8499999  0.2223E+02  0.1531E+02
   2.8599999  0.2236E+02  0.1543E+02
   2.8699999  0.2250E+02  0.1563E+02
   2.8800001  0.2261E+02  0.1595E+02
   2.8900001  0.2266E+02  0.1640E+02
   2.9000001  0.2256E+02  0.1694E+02
   2.9100001  0.2228E+02  0.1752E+02
   2.9200001  0.2178E+02  0.1804E+02
   2.9300001  0.2110E+02  0.1841E+02
   2.9400001  0.2032E+02  0.1855E+02
   2.9499998  0.1956E+02  0.1843E+02
   2.9599998  0.1892E+02  0.1809E+02
   2.9699998  0.1849E+02  0.1763E+02
   2.9800000  0.1827E+02  0.1713E+02
   2.9900000  0.1823E+02  0.1670E+02
   3.0000000  0.1830E+02  0.1637E+02
   3.0100000  0.1844E+02  0.1617E+02
   3.0200000  0.1858E+02  0.1608E+02
   3.0300000  0.1868E+02  0.1609E+02
   3.0400000  0.1871E+02  0.1616E+02
   3.0500000  0.1865E+02  0.1625E+02
   3.0599999  0.1851E+02  0.1631E+02
   3.0700002  0.1831E+02  0.1631E+02
   3.0800002  0.1809E+02  0.1621E+02
   3.0899999  0.1790E+02  0.1604E+02
   3.0999999  0.1775E+02  0.1580E+02
   3.1099999  0.1765E+02  0.1551E+02
   3.1199999  0.1761E+02  0.1518E+02
   3.1299999  0.1765E+02  0.1479E+02
   3.1399999  0.1779E+02  0.1438E+02
   3.1499999  0.1806E+02  0.1398E+02
   3.1600001  0.1845E+02  0.1361E+02
   3.1700001  0.1896E+02  0.1334E+02
   3.1800001  0.1955E+02  0.1319E+02
   3.1900001  0.2018E+02  0.1318E+02
   3.2000000  0.2080E+02  0.1332E+02
   3.2100000  0.2137E+02  0.1359E+02
   3.2200000  0.2185E+02  0.1396E+02
   3.2300000  0.2220E+02  0.1438E+02
   3.2400000  0.2244E+02  0.1480E+02
   3.2500000  0.2259E+02  0.1516E+02
   3.2600000  0.2270E+02  0.1543E+02
   3.2700000  0.2283E+02  0.1562E+02
   3.2800000  0.2303E+02  0.1575E+02
   3.2900000  0.2333E+02  0.1586E+02
   3.3000000  0.2373E+02  0.1601E+02
   3.3099999  0.2420E+02  0.1625E+02
   3.3199999  0.2473E+02  0.1660E+02
   3.3299999  0.2527E+02  0.1707E+02
   3.3400002  0.2577E+02  0.1768E+02
   3.3500001  0.2619E+02  0.1841E+02
   3.3600001  0.2652E+02  0.1923E+02
   3.3700001  0.2672E+02  0.2011E+02
   3.3799999  0.2678E+02  0.2101E+02
   3.3899999  0.2670E+02  0.2192E+02
   3.3999999  0.2647E+02  0.2276E+02
   3.4100001  0.2611E+02  0.2349E+02
   3.4200001  0.2567E+02  0.2404E+02
   3.4300001  0.2526E+02  0.2438E+02
   3.4400001  0.2499E+02  0.2455E+02
   3.4500000  0.2492E+02  0.2462E+02
   3.4600000  0.2510E+02  0.2472E+02
   3.4700000  0.2549E+02  0.2495E+02
   3.4800000  0.2603E+02  0.2541E+02
   3.4900000  0.2662E+02  0.2615E+02
   3.5000000  0.2716E+02  0.2716E+02
   3.5100000  0.2755E+02  0.2843E+02
   3.5200000  0.2773E+02  0.2989E+02
   3.5300000  0.2764E+02  0.3149E+02
   3.5399997  0.2727E+02  0.3315E+02
   3.5499997  0.2661E+02  0.3478E+02
   3.5599997  0.2568E+02  0.3633E+02
   3.5700002  0.2451E+02  0.3774E+02
   3.5800002  0.2314E+02  0.3897E+02
   3.5900002  0.2162E+02  0.3998E+02
   3.6000001  0.1998E+02  0.4073E+02
   3.6100001  0.1830E+02  0.4122E+02
   3.6200001  0.1666E+02  0.4141E+02
   3.6300001  0.1514E+02  0.4135E+02
   3.6400001  0.1384E+02  0.4110E+02
   3.6500001  0.1280E+02  0.4078E+02
   3.6600001  0.1201E+02  0.4051E+02
   3.6699998  0.1139E+02  0.4040E+02
   3.6799998  0.1082E+02  0.4052E+02
   3.6899998  0.1015E+02  0.4087E+02
   3.6999998  0.9261E+01  0.4135E+02
   3.7099998  0.8071E+01  0.4184E+02
   3.7199998  0.6593E+01  0.4217E+02
   3.7299998  0.4917E+01  0.4221E+02
   3.7399998  0.3190E+01  0.4189E+02
   3.7500002  0.1564E+01  0.4123E+02
   3.7600002  0.1499E+00  0.4030E+02
   3.7700002 -0.1003E+01  0.3923E+02
   3.7800002 -0.1902E+01  0.3811E+02
   3.7900002 -0.2584E+01  0.3702E+02
   3.8000000 -0.3094E+01  0.3597E+02
   3.8099999 -0.3471E+01  0.3501E+02
   3.8199999 -0.3739E+01  0.3412E+02
   3.8299999 -0.3919E+01  0.3333E+02
   3.8399999 -0.4033E+01  0.3265E+02
   3.8499999 -0.4124E+01  0.3211E+02
   3.8599999 -0.4253E+01  0.3170E+02
   3.8699999 -0.4488E+01  0.3140E+02
   3.8799999 -0.4880E+01  0.3113E+02
   3.8899999 -0.5440E+01  0.3080E+02
   3.8999999 -0.6124E+01  0.3031E+02
   3.9099998 -0.6832E+01  0.2959E+02
   3.9199998 -0.7449E+01  0.2866E+02
   3.9299998 -0.7882E+01  0.2756E+02
   3.9400001 -0.8090E+01  0.2641E+02
   3.9500000 -0.8086E+01  0.2527E+02
   3.9600000 -0.7914E+01  0.2422E+02
   3.9700000 -0.7626E+01  0.2328E+02
   3.9800000 -0.7269E+01  0.2245E+02
   3.9900000 -0.6882E+01  0.2173E+02
   4.0000000 -0.6491E+01  0.2109E+02
   4.0100002 -0.6111E+01  0.2049E+02
   4.0200000 -0.5735E+01  0.1991E+02
   4.0299997 -0.5337E+01  0.1933E+02
   4.0400000 -0.4884E+01  0.1875E+02
   4.0499997 -0.4354E+01  0.1818E+02
   4.0599999 -0.3742E+01  0.1768E+02
   4.0699997 -0.3064E+01  0.1724E+02
   4.0799999 -0.2343E+01  0.1690E+02
   4.0899997 -0.1594E+01  0.1664E+02
   4.0999999 -0.8210E+00  0.1645E+02
   4.1099997 -0.1905E-01  0.1633E+02
   4.1200004  0.8206E+00  0.1629E+02
   4.1300001  0.1700E+01  0.1635E+02
   4.1400003  0.2611E+01  0.1654E+02
   4.1500001  0.3533E+01  0.1688E+02
   4.1599998  0.4433E+01  0.1737E+02
   4.1700001  0.5271E+01  0.1804E+02
   4.1799998  0.6003E+01  0.1886E+02
   4.1900001  0.6590E+01  0.1982E+02
   4.1999998  0.7009E+01  0.2086E+02
   4.2100000  0.7255E+01  0.2194E+02
   4.2199998  0.7339E+01  0.2303E+02
   4.2300000  0.7284E+01  0.2410E+02
   4.2399998  0.7112E+01  0.2512E+02
   4.2500000  0.6844E+01  0.2611E+02
   4.2599998  0.6502E+01  0.2706E+02
   4.2700000  0.6105E+01  0.2797E+02
   4.2799997  0.5660E+01  0.2889E+02
   4.2900000  0.5151E+01  0.2983E+02
   4.3000002  0.4535E+01  0.3081E+02
   4.3099999  0.3766E+01  0.3181E+02
   4.3200002  0.2813E+01  0.3279E+02
   4.3299999  0.1671E+01  0.3369E+02
   4.3400002  0.3570E+00  0.3448E+02
   4.3499999 -0.1102E+01  0.3511E+02
   4.3600001 -0.2687E+01  0.3557E+02
   4.3699999 -0.4391E+01  0.3586E+02
   4.3800001 -0.6210E+01  0.3592E+02
   4.3899999 -0.8125E+01  0.3571E+02
   4.4000001 -0.1008E+02  0.3516E+02
   4.4099998 -0.1197E+02  0.3422E+02
   4.4200001 -0.1367E+02  0.3289E+02
   4.4299998 -0.1504E+02  0.3124E+02
   4.4400001 -0.1599E+02  0.2938E+02
   4.4499998 -0.1647E+02  0.2747E+02
   4.4600000 -0.1652E+02  0.2566E+02
   4.4699998 -0.1622E+02  0.2406E+02
   4.4799995 -0.1568E+02  0.2274E+02
   4.4900002 -0.1498E+02  0.2174E+02
   4.5000000 -0.1424E+02  0.2104E+02
   4.5100002 -0.1354E+02  0.2062E+02
   4.5200000 -0.1295E+02  0.2044E+02
   4.5300002 -0.1252E+02  0.2044E+02
   4.5400000 -0.1230E+02  0.2054E+02
   4.5500002 -0.1227E+02  0.2066E+02
   4.5599999 -0.1242E+02  0.2073E+02
   4.5700002 -0.1269E+02  0.2070E+02
   4.5799999 -0.1300E+02  0.2054E+02
   4.5900002 -0.1332E+02  0.2028E+02
   4.5999999 -0.1359E+02  0.1995E+02
   4.6099997 -0.1381E+02  0.1960E+02
   4.6199999 -0.1401E+02  0.1925E+02
   4.6299996 -0.1423E+02  0.1892E+02
   4.6399999 -0.1450E+02  0.1856E+02
   4.6499996 -0.1479E+02  0.1815E+02
   4.6599998 -0.1510E+02  0.1765E+02
   4.6700001 -0.1537E+02  0.1705E+02
   4.6800003 -0.1557E+02  0.1638E+02
   4.6900001 -0.1567E+02  0.1565E+02
   4.7000003 -0.1567E+02  0.1491E+02
   4.7100000 -0.1557E+02  0.1417E+02
   4.7200003 -0.1538E+02  0.1348E+02
   4.7300000 -0.1513E+02  0.1283E+02
   4.7399998 -0.1483E+02  0.1224E+02
   4.7500000 -0.1450E+02  0.1171E+02
   4.7599998 -0.1415E+02  0.1121E+02
   4.7700000 -0.1379E+02  0.1074E+02
   4.7799997 -0.1339E+02  0.1029E+02
   4.7900000 -0.1296E+02  0.9877E+01
   4.7999997 -0.1248E+02  0.9501E+01
   4.8099999 -0.1196E+02  0.9183E+01
   4.8199997 -0.1141E+02  0.8937E+01
   4.8299999 -0.1083E+02  0.8779E+01
   4.8399997 -0.1025E+02  0.8714E+01
   4.8500004 -0.9695E+01  0.8749E+01
   4.8600001 -0.9179E+01  0.8879E+01
   4.8699999 -0.8730E+01  0.9098E+01
   4.8800001 -0.8370E+01  0.9391E+01
   4.8899999 -0.8121E+01  0.9733E+01
   4.9000001 -0.7994E+01  0.1009E+02
   4.9099998 -0.7992E+01  0.1043E+02
   4.9200001 -0.8102E+01  0.1072E+02
   4.9299998 -0.8298E+01  0.1092E+02
   4.9400001 -0.8542E+01  0.1101E+02
   4.9499998 -0.8796E+01  0.1100E+02
   4.9600000 -0.9029E+01  0.1090E+02
   4.9699998 -0.9228E+01  0.1074E+02
   4.9800000 -0.9392E+01  0.1054E+02
   4.9899998 -0.9526E+01  0.1029E+02
   5.0000000 -0.9630E+01  0.1001E+02
   5.0099998 -0.9688E+01  0.9675E+01
   5.0200000 -0.9682E+01  0.9307E+01
   5.0300002 -0.9595E+01  0.8923E+01
   5.0400000 -0.9423E+01  0.8555E+01
   5.0500002 -0.9179E+01  0.8228E+01
   5.0599999 -0.8883E+01  0.7963E+01
   5.0700002 -0.8558E+01  0.7767E+01
   5.0799999 -0.8227E+01  0.7640E+01
   5.0900002 -0.7910E+01  0.7576E+01
   5.0999999 -0.7621E+01  0.7560E+01
   5.1100001 -0.7370E+01  0.7577E+01
   5.1199999 -0.7158E+01  0.7610E+01
   5.1300001 -0.6980E+01  0.7641E+01
   5.1399999 -0.6823E+01  0.7660E+01
   5.1500001 -0.6670E+01  0.7664E+01
   5.1599998 -0.6505E+01  0.7661E+01
   5.1700001 -0.6321E+01  0.7664E+01
   5.1799998 -0.6118E+01  0.7694E+01
   5.1899996 -0.5909E+01  0.7766E+01
   5.1999998 -0.5714E+01  0.7889E+01
   5.2099996 -0.5556E+01  0.8060E+01
   5.2200003 -0.5456E+01  0.8266E+01
   5.2300000 -0.5432E+01  0.8484E+01
   5.2400002 -0.5487E+01  0.8683E+01
   5.2500000 -0.5611E+01  0.8832E+01
   5.2600002 -0.5779E+01  0.8905E+01
   5.2700000 -0.5958E+01  0.8889E+01
   5.2800002 -0.6109E+01  0.8789E+01
   5.2900000 -0.6200E+01  0.8627E+01
   5.3000002 -0.6216E+01  0.8433E+01
   5.3099999 -0.6153E+01  0.8242E+01
   5.3199997 -0.6024E+01  0.8083E+01
   5.3299999 -0.5848E+01  0.7976E+01
   5.3399997 -0.5647E+01  0.7932E+01
   5.3499999 -0.5444E+01  0.7955E+01
   5.3599997 -0.5265E+01  0.8042E+01
   5.3699999 -0.5130E+01  0.8183E+01
   5.3799996 -0.5060E+01  0.8359E+01
   5.3899999 -0.5068E+01  0.8542E+01
   5.4000001 -0.5150E+01  0.8699E+01
   5.4100003 -0.5288E+01  0.8799E+01
   5.4200001 -0.5452E+01  0.8829E+01
   5.4300003 -0.5610E+01  0.8791E+01
   5.4400001 -0.5739E+01  0.8700E+01
   5.4499998 -0.5830E+01  0.8575E+01
   5.4600000 -0.5882E+01  0.8432E+01
   5.4699998 -0.5898E+01  0.8284E+01
   5.4800000 -0.5883E+01  0.8139E+01
   5.4899998 -0.5845E+01  0.8001E+01
   5.5000000 -0.5786E+01  0.7870E+01
   5.5099998 -0.5709E+01  0.7747E+01
   5.5200000 -0.5613E+01  0.7634E+01
   5.5299997 -0.5498E+01  0.7535E+01
   5.5400000 -0.5367E+01  0.7456E+01
   5.5499997 -0.5229E+01  0.7402E+01
   5.5599999 -0.5092E+01  0.7371E+01
   5.5699997 -0.4964E+01  0.7359E+01
   5.5800004 -0.4850E+01  0.7356E+01
   5.5900002 -0.4747E+01  0.7353E+01
   5.5999999 -0.4649E+01  0.7341E+01
   5.6100001 -0.4543E+01  0.7318E+01
   5.6199999 -0.4419E+01  0.7288E+01
   5.6300001 -0.4268E+01  0.7260E+01
   5.6399999 -0.4087E+01  0.7250E+01
   5.6500001 -0.3881E+01  0.7271E+01
   5.6599998 -0.3662E+01  0.7332E+01
   5.6700001 -0.3442E+01  0.7437E+01
   5.6799998 -0.3231E+01  0.7584E+01
   5.6900001 -0.3039E+01  0.7769E+01
   5.6999998 -0.2875E+01  0.7988E+01
   5.7100000 -0.2743E+01  0.8231E+01
   5.7199998 -0.2645E+01  0.8487E+01
   5.7300000 -0.2576E+01  0.8746E+01
   5.7399998 -0.2524E+01  0.9004E+01
   5.7500000 -0.2476E+01  0.9264E+01
   5.7600002 -0.2423E+01  0.9543E+01
   5.7700000 -0.2368E+01  0.9862E+01
   5.7800002 -0.2329E+01  0.1024E+02
   5.7900000 -0.2335E+01  0.1069E+02
   5.8000002 -0.2425E+01  0.1121E+02
   5.8099999 -0.2633E+01  0.1178E+02
   5.8200002 -0.2988E+01  0.1235E+02
   5.8299999 -0.3497E+01  0.1287E+02
   5.8400002 -0.4141E+01  0.1330E+02
   5.8499999 -0.4876E+01  0.1357E+02
   5.8600001 -0.5649E+01  0.1370E+02
   5.8699999 -0.6415E+01  0.1369E+02
   5.8800001 -0.7153E+01  0.1357E+02
   5.8899999 -0.7860E+01  0.1335E+02
   5.8999996 -0.8538E+01  0.1304E+02
   5.9099998 -0.9177E+01  0.1264E+02
   5.9199996 -0.9757E+01  0.1213E+02
   5.9299998 -0.1025E+02  0.1154E+02
   5.9399996 -0.1064E+02  0.1087E+02
   5.9500003 -0.1090E+02  0.1016E+02
   5.9600000 -0.1102E+02  0.9433E+01
   5.9700003 -0.1103E+02  0.8727E+01
   5.9800000 -0.1091E+02  0.8070E+01
   5.9900002 -0.1071E+02  0.7484E+01
   6.0000000 -0.1043E+02  0.6983E+01
   6.0100002 -0.1012E+02  0.6573E+01
   6.0200000 -0.9780E+01  0.6253E+01
   6.0300002 -0.9448E+01  0.6017E+01
   6.0400000 -0.9136E+01  0.5855E+01
   6.0499997 -0.8862E+01  0.5754E+01
   6.0599999 -0.8635E+01  0.5693E+01
   6.0699997 -0.8461E+01  0.5653E+01
   6.0799999 -0.8334E+01  0.5611E+01
   6.0899997 -0.8240E+01  0.5551E+01
   6.0999999 -0.8163E+01  0.5467E+01
   6.1099997 -0.8086E+01  0.5358E+01
   6.1199999 -0.7998E+01  0.5234E+01
   6.1300001 -0.7894E+01  0.5101E+01
   6.1400003 -0.7772E+01  0.4969E+01
   6.1500001 -0.7632E+01  0.4843E+01
   6.1600003 -0.7478E+01  0.4728E+01
   6.1700001 -0.7311E+01  0.4627E+01
   6.1799998 -0.7134E+01  0.4543E+01
   6.1900001 -0.6947E+01  0.4476E+01
   6.1999998 -0.6753E+01  0.4429E+01
   6.2100000 -0.6551E+01  0.4406E+01
   6.2199998 -0.6346E+01  0.4413E+01
   6.2300000 -0.6144E+01  0.4456E+01
   6.2399998 -0.5955E+01  0.4536E+01
   6.2500000 -0.5792E+01  0.4654E+01
   6.2599998 -0.5667E+01  0.4803E+01
   6.2700000 -0.5592E+01  0.4972E+01
   6.2799997 -0.5575E+01  0.5144E+01
   6.2900000 -0.5615E+01  0.5299E+01
   6.2999997 -0.5703E+01  0.5416E+01
   6.3099999 -0.5819E+01  0.5481E+01
   6.3200002 -0.5942E+01  0.5488E+01
   6.3299999 -0.6047E+01  0.5446E+01
   6.3400002 -0.6120E+01  0.5371E+01
   6.3499999 -0.6157E+01  0.5283E+01
   6.3600001 -0.6163E+01  0.5198E+01
   6.3699999 -0.6149E+01  0.5127E+01
   6.3800001 -0.6129E+01  0.5071E+01
   6.3899999 -0.6113E+01  0.5024E+01
   6.4000001 -0.6103E+01  0.4977E+01
   6.4099998 -0.6095E+01  0.4922E+01
   6.4200001 -0.6080E+01  0.4857E+01
   6.4299998 -0.6052E+01  0.4786E+01
   6.4400001 -0.6007E+01  0.4719E+01
   6.4499998 -0.5951E+01  0.4661E+01
   6.4600000 -0.5889E+01  0.4614E+01
   6.4699998 -0.5823E+01  0.4576E+01
   6.4800000 -0.5754E+01  0.4544E+01
   6.4899998 -0.5677E+01  0.4521E+01
   6.5000000 -0.5591E+01  0.4512E+01
   6.5100002 -0.5500E+01  0.4527E+01
   6.5200000 -0.5416E+01  0.4572E+01
   6.5300002 -0.5351E+01  0.4645E+01
   6.5400000 -0.5320E+01  0.4740E+01
   6.5500002 -0.5332E+01  0.4841E+01
   6.5599999 -0.5388E+01  0.4929E+01
   6.5700002 -0.5479E+01  0.4988E+01
   6.5799999 -0.5590E+01  0.5008E+01
   6.5900002 -0.5706E+01  0.4985E+01
   6.5999999 -0.5813E+01  0.4924E+01
   6.6100001 -0.5900E+01  0.4828E+01
   6.6199999 -0.5957E+01  0.4708E+01
   6.6299996 -0.5978E+01  0.4575E+01
   6.6399999 -0.5960E+01  0.4444E+01
   6.6499996 -0.5910E+01  0.4329E+01
   6.6599998 -0.5840E+01  0.4238E+01
   6.6699996 -0.5760E+01  0.4175E+01
   6.6800003 -0.5683E+01  0.4135E+01
   6.6900001 -0.5613E+01  0.4111E+01
   6.7000003 -0.5550E+01  0.4097E+01
   6.7100000 -0.5492E+01  0.4090E+01
   6.7200003 -0.5436E+01  0.4090E+01
   6.7300000 -0.5381E+01  0.4100E+01
   6.7400002 -0.5329E+01  0.4124E+01
   6.7500000 -0.5286E+01  0.4166E+01
   6.7599998 -0.5259E+01  0.4224E+01
   6.7700000 -0.5257E+01  0.4296E+01
   6.7799997 -0.5288E+01  0.4374E+01
   6.7900000 -0.5356E+01  0.4445E+01
   6.7999997 -0.5458E+01  0.4494E+01
   6.8100004 -0.5586E+01  0.4509E+01
   6.8200002 -0.5726E+01  0.4483E+01
   6.8300004 -0.5865E+01  0.4415E+01
   6.8400002 -0.5988E+01  0.4307E+01
   6.8500004 -0.6086E+01  0.4168E+01
   6.8600001 -0.6151E+01  0.4009E+01
   6.8700004 -0.6182E+01  0.3842E+01
   6.8800001 -0.6182E+01  0.3675E+01
   6.8899999 -0.6154E+01  0.3515E+01
   6.9000001 -0.6104E+01  0.3369E+01
   6.9099998 -0.6035E+01  0.3239E+01
   6.9200001 -0.5955E+01  0.3128E+01
   6.9299998 -0.5869E+01  0.3036E+01
   6.9400001 -0.5783E+01  0.2963E+01
   6.9499998 -0.5701E+01  0.2905E+01
   6.9600000 -0.5628E+01  0.2860E+01
   6.9699998 -0.5566E+01  0.2822E+01
   6.9800000 -0.5514E+01  0.2786E+01
   6.9899998 -0.5473E+01  0.2747E+01
   7.0000000 -0.5438E+01  0.2703E+01
