# macroscopic dielectric function
# without local fields
# testparticle  RPA                 
# npwmat =   59  npwwfn =  283  nbands =    8  lomo =    2  nkibz =   60  nkbz = 1372
# energy range   0.00  7.00 [eV]
# lorentzian broadening =   0.0750 [eV]
# dsf factor     0.000000 [a.u.] 
# unit cell volume    266.630737 [a.u.] 
# G = (  0,  0,  0) [r.l.u.]
# G = ( 0.000000, 0.000000, 0.000000) [c.c.]
# G = ( 0.000000, 0.000000, 0.000000) [c.c. units of 2pi/a =  0.614974 a.u.]
# q -> 0 average over the three cartesian directions
# omega       eps_1       eps_2
   0.0000000  0.1385E+02  0.7322E-08
   0.0100000  0.1385E+02  0.1427E-02
   0.0200000  0.1385E+02  0.2854E-02
   0.0300000  0.1385E+02  0.4281E-02
   0.0400000  0.1385E+02  0.5709E-02
   0.0500000  0.1385E+02  0.7138E-02
   0.0600000  0.1385E+02  0.8566E-02
   0.0700000  0.1385E+02  0.9996E-02
   0.0800000  0.1385E+02  0.1143E-01
   0.0900000  0.1386E+02  0.1286E-01
   0.1000000  0.1386E+02  0.1429E-01
   0.1100000  0.1386E+02  0.1573E-01
   0.1200000  0.1386E+02  0.1717E-01
   0.1300000  0.1386E+02  0.1860E-01
   0.1400000  0.1387E+02  0.2004E-01
   0.1500000  0.1387E+02  0.2149E-01
   0.1600000  0.1387E+02  0.2293E-01
   0.1700000  0.1388E+02  0.2438E-01
   0.1800000  0.1388E+02  0.2583E-01
   0.1900000  0.1388E+02  0.2728E-01
   0.2000000  0.1389E+02  0.2874E-01
   0.2100000  0.1389E+02  0.3020E-01
   0.2200000  0.1389E+02  0.3166E-01
   0.2300000  0.1390E+02  0.3312E-01
   0.2400000  0.1390E+02  0.3459E-01
   0.2500000  0.1391E+02  0.3606E-01
   0.2600000  0.1391E+02  0.3754E-01
   0.2700000  0.1392E+02  0.3902E-01
   0.2800000  0.1392E+02  0.4050E-01
   0.2900000  0.1393E+02  0.4199E-01
   0.3000000  0.1393E+02  0.4348E-01
   0.3100000  0.1394E+02  0.4498E-01
   0.3200000  0.1395E+02  0.4648E-01
   0.3300000  0.1395E+02  0.4799E-01
   0.3400000  0.1396E+02  0.4950E-01
   0.3500000  0.1397E+02  0.5102E-01
   0.3600000  0.1397E+02  0.5255E-01
   0.3700000  0.1398E+02  0.5408E-01
   0.3800000  0.1399E+02  0.5561E-01
   0.3900000  0.1399E+02  0.5715E-01
   0.4000000  0.1400E+02  0.5870E-01
   0.4100000  0.1401E+02  0.6025E-01
   0.4200000  0.1402E+02  0.6181E-01
   0.4300000  0.1403E+02  0.6338E-01
   0.4400000  0.1403E+02  0.6496E-01
   0.4500000  0.1404E+02  0.6654E-01
   0.4600000  0.1405E+02  0.6813E-01
   0.4700000  0.1406E+02  0.6972E-01
   0.4800000  0.1407E+02  0.7133E-01
   0.4900000  0.1408E+02  0.7294E-01
   0.5000000  0.1409E+02  0.7456E-01
   0.5100000  0.1410E+02  0.7619E-01
   0.5200000  0.1411E+02  0.7783E-01
   0.5300000  0.1412E+02  0.7947E-01
   0.5400000  0.1413E+02  0.8113E-01
   0.5500000  0.1414E+02  0.8279E-01
   0.5599999  0.1415E+02  0.8447E-01
   0.5700000  0.1417E+02  0.8615E-01
   0.5800000  0.1418E+02  0.8784E-01
   0.5900000  0.1419E+02  0.8955E-01
   0.6000000  0.1420E+02  0.9126E-01
   0.6100000  0.1421E+02  0.9299E-01
   0.6200000  0.1423E+02  0.9473E-01
   0.6300000  0.1424E+02  0.9647E-01
   0.6400000  0.1425E+02  0.9823E-01
   0.6500000  0.1426E+02  0.1000E+00
   0.6600000  0.1428E+02  0.1018E+00
   0.6700000  0.1429E+02  0.1036E+00
   0.6800000  0.1431E+02  0.1054E+00
   0.6900000  0.1432E+02  0.1072E+00
   0.7000000  0.1433E+02  0.1090E+00
   0.7100000  0.1435E+02  0.1109E+00
   0.7200000  0.1436E+02  0.1127E+00
   0.7300000  0.1438E+02  0.1146E+00
   0.7399999  0.1439E+02  0.1165E+00
   0.7500000  0.1441E+02  0.1184E+00
   0.7600000  0.1443E+02  0.1203E+00
   0.7700000  0.1444E+02  0.1223E+00
   0.7800000  0.1446E+02  0.1242E+00
   0.7900000  0.1447E+02  0.1262E+00
   0.8000000  0.1449E+02  0.1281E+00
   0.8100000  0.1451E+02  0.1301E+00
   0.8200000  0.1453E+02  0.1322E+00
   0.8300000  0.1454E+02  0.1342E+00
   0.8400000  0.1456E+02  0.1362E+00
   0.8500000  0.1458E+02  0.1383E+00
   0.8600000  0.1460E+02  0.1404E+00
   0.8700000  0.1462E+02  0.1425E+00
   0.8800000  0.1464E+02  0.1446E+00
   0.8899999  0.1466E+02  0.1468E+00
   0.9000000  0.1468E+02  0.1489E+00
   0.9100000  0.1470E+02  0.1511E+00
   0.9200000  0.1472E+02  0.1533E+00
   0.9299999  0.1474E+02  0.1555E+00
   0.9400001  0.1476E+02  0.1578E+00
   0.9500000  0.1478E+02  0.1600E+00
   0.9600000  0.1480E+02  0.1623E+00
   0.9700000  0.1482E+02  0.1646E+00
   0.9800000  0.1484E+02  0.1670E+00
   0.9900000  0.1487E+02  0.1693E+00
   1.0000000  0.1489E+02  0.1717E+00
   1.0100000  0.1491E+02  0.1741E+00
   1.0200000  0.1493E+02  0.1766E+00
   1.0300001  0.1496E+02  0.1790E+00
   1.0400000  0.1498E+02  0.1815E+00
   1.0500000  0.1501E+02  0.1840E+00
   1.0599999  0.1503E+02  0.1866E+00
   1.0699999  0.1506E+02  0.1891E+00
   1.0800000  0.1508E+02  0.1917E+00
   1.0900000  0.1511E+02  0.1944E+00
   1.1000000  0.1513E+02  0.1970E+00
   1.1100000  0.1516E+02  0.1997E+00
   1.1199999  0.1519E+02  0.2024E+00
   1.1300000  0.1521E+02  0.2052E+00
   1.1400000  0.1524E+02  0.2080E+00
   1.1500000  0.1527E+02  0.2108E+00
   1.1600000  0.1530E+02  0.2136E+00
   1.1700001  0.1533E+02  0.2165E+00
   1.1800001  0.1535E+02  0.2195E+00
   1.1899999  0.1538E+02  0.2224E+00
   1.1999999  0.1541E+02  0.2254E+00
   1.2099999  0.1544E+02  0.2285E+00
   1.2200000  0.1547E+02  0.2315E+00
   1.2300000  0.1551E+02  0.2347E+00
   1.2400000  0.1554E+02  0.2378E+00
   1.2500000  0.1557E+02  0.2410E+00
   1.2600000  0.1560E+02  0.2443E+00
   1.2700000  0.1563E+02  0.2476E+00
   1.2800000  0.1567E+02  0.2509E+00
   1.2900000  0.1570E+02  0.2543E+00
   1.3000000  0.1573E+02  0.2577E+00
   1.3100001  0.1577E+02  0.2612E+00
   1.3200001  0.1580E+02  0.2647E+00
   1.3299999  0.1584E+02  0.2683E+00
   1.3399999  0.1587E+02  0.2719E+00
   1.3500000  0.1591E+02  0.2756E+00
   1.3600000  0.1595E+02  0.2794E+00
   1.3700000  0.1599E+02  0.2832E+00
   1.3800000  0.1602E+02  0.2870E+00
   1.3900000  0.1606E+02  0.2909E+00
   1.4000000  0.1610E+02  0.2949E+00
   1.4100000  0.1614E+02  0.2989E+00
   1.4200000  0.1618E+02  0.3030E+00
   1.4299999  0.1622E+02  0.3072E+00
   1.4400001  0.1626E+02  0.3114E+00
   1.4500000  0.1630E+02  0.3157E+00
   1.4600000  0.1635E+02  0.3201E+00
   1.4700000  0.1639E+02  0.3245E+00
   1.4799999  0.1643E+02  0.3290E+00
   1.4900000  0.1648E+02  0.3336E+00
   1.5000000  0.1652E+02  0.3383E+00
   1.5100000  0.1657E+02  0.3431E+00
   1.5200000  0.1661E+02  0.3479E+00
   1.5300000  0.1666E+02  0.3528E+00
   1.5400001  0.1670E+02  0.3578E+00
   1.5500000  0.1675E+02  0.3629E+00
   1.5599999  0.1680E+02  0.3681E+00
   1.5699999  0.1685E+02  0.3734E+00
   1.5800000  0.1690E+02  0.3788E+00
   1.5900000  0.1695E+02  0.3843E+00
   1.6000000  0.1700E+02  0.3899E+00
   1.6100000  0.1705E+02  0.3956E+00
   1.6200000  0.1711E+02  0.4014E+00
   1.6300000  0.1716E+02  0.4073E+00
   1.6400000  0.1722E+02  0.4133E+00
   1.6500000  0.1727E+02  0.4195E+00
   1.6600000  0.1733E+02  0.4258E+00
   1.6700001  0.1738E+02  0.4322E+00
   1.6800001  0.1744E+02  0.4387E+00
   1.6899999  0.1750E+02  0.4454E+00
   1.6999999  0.1756E+02  0.4522E+00
   1.7100000  0.1762E+02  0.4592E+00
   1.7200000  0.1768E+02  0.4663E+00
   1.7300000  0.1774E+02  0.4736E+00
   1.7400000  0.1781E+02  0.4810E+00
   1.7500000  0.1787E+02  0.4886E+00
   1.7600000  0.1794E+02  0.4964E+00
   1.7699999  0.1800E+02  0.5043E+00
   1.7799999  0.1807E+02  0.5125E+00
   1.7900001  0.1814E+02  0.5208E+00
   1.8000001  0.1821E+02  0.5293E+00
   1.8100001  0.1828E+02  0.5381E+00
   1.8200001  0.1835E+02  0.5470E+00
   1.8300000  0.1842E+02  0.5562E+00
   1.8399999  0.1850E+02  0.5656E+00
   1.8499999  0.1857E+02  0.5752E+00
   1.8599999  0.1865E+02  0.5851E+00
   1.8699999  0.1873E+02  0.5953E+00
   1.8800001  0.1881E+02  0.6057E+00
   1.8900001  0.1889E+02  0.6164E+00
   1.9000000  0.1897E+02  0.6274E+00
   1.9100000  0.1905E+02  0.6387E+00
   1.9200000  0.1914E+02  0.6503E+00
   1.9299999  0.1922E+02  0.6622E+00
   1.9399999  0.1931E+02  0.6745E+00
   1.9499999  0.1940E+02  0.6872E+00
   1.9599999  0.1949E+02  0.7002E+00
   1.9700000  0.1959E+02  0.7136E+00
   1.9800000  0.1968E+02  0.7275E+00
   1.9900000  0.1978E+02  0.7417E+00
   2.0000000  0.1988E+02  0.7565E+00
   2.0100000  0.1998E+02  0.7717E+00
   2.0200000  0.2008E+02  0.7874E+00
   2.0300000  0.2019E+02  0.8036E+00
   2.0400000  0.2029E+02  0.8204E+00
   2.0500000  0.2040E+02  0.8378E+00
   2.0600002  0.2051E+02  0.8557E+00
   2.0700002  0.2063E+02  0.8744E+00
   2.0799999  0.2074E+02  0.8937E+00
   2.0899999  0.2086E+02  0.9137E+00
   2.0999999  0.2098E+02  0.9346E+00
   2.1099999  0.2111E+02  0.9562E+00
   2.1199999  0.2123E+02  0.9787E+00
   2.1299999  0.2136E+02  0.1002E+01
   2.1399999  0.2150E+02  0.1026E+01
   2.1500001  0.2163E+02  0.1052E+01
   2.1600001  0.2177E+02  0.1078E+01
   2.1700001  0.2191E+02  0.1106E+01
   2.1800001  0.2206E+02  0.1135E+01
   2.1900001  0.2221E+02  0.1165E+01
   2.2000000  0.2236E+02  0.1197E+01
   2.2100000  0.2252E+02  0.1231E+01
   2.2200000  0.2268E+02  0.1266E+01
   2.2300000  0.2285E+02  0.1303E+01
   2.2399998  0.2302E+02  0.1342E+01
   2.2500000  0.2319E+02  0.1383E+01
   2.2600000  0.2338E+02  0.1426E+01
   2.2700000  0.2356E+02  0.1472E+01
   2.2800000  0.2375E+02  0.1521E+01
   2.2900000  0.2395E+02  0.1572E+01
   2.3000000  0.2415E+02  0.1628E+01
   2.3099999  0.2437E+02  0.1687E+01
   2.3199999  0.2458E+02  0.1750E+01
   2.3299999  0.2481E+02  0.1817E+01
   2.3400002  0.2504E+02  0.1890E+01
   2.3500001  0.2528E+02  0.1968E+01
   2.3600001  0.2553E+02  0.2053E+01
   2.3699999  0.2579E+02  0.2146E+01
   2.3799999  0.2605E+02  0.2246E+01
   2.3899999  0.2633E+02  0.2356E+01
   2.3999999  0.2661E+02  0.2477E+01
   2.4099998  0.2691E+02  0.2611E+01
   2.4199998  0.2722E+02  0.2758E+01
   2.4300001  0.2753E+02  0.2922E+01
   2.4400001  0.2786E+02  0.3105E+01
   2.4500000  0.2819E+02  0.3309E+01
   2.4600000  0.2852E+02  0.3536E+01
   2.4700000  0.2886E+02  0.3789E+01
   2.4800000  0.2919E+02  0.4067E+01
   2.4900000  0.2951E+02  0.4369E+01
   2.5000000  0.2982E+02  0.4689E+01
   2.5100000  0.3012E+02  0.5020E+01
   2.5200000  0.3040E+02  0.5352E+01
   2.5300000  0.3068E+02  0.5679E+01
   2.5400000  0.3098E+02  0.6001E+01
   2.5500000  0.3131E+02  0.6328E+01
   2.5599999  0.3168E+02  0.6681E+01
   2.5699999  0.3209E+02  0.7080E+01
   2.5799999  0.3253E+02  0.7548E+01
   2.5899999  0.3298E+02  0.8102E+01
   2.5999999  0.3342E+02  0.8755E+01
   2.6100001  0.3383E+02  0.9515E+01
   2.6200001  0.3418E+02  0.1038E+02
   2.6300001  0.3443E+02  0.1134E+02
   2.6400001  0.3456E+02  0.1237E+02
   2.6500001  0.3455E+02  0.1345E+02
   2.6599998  0.3439E+02  0.1456E+02
   2.6699998  0.3406E+02  0.1565E+02
   2.6799998  0.3357E+02  0.1671E+02
   2.6899998  0.3291E+02  0.1767E+02
   2.7000000  0.3209E+02  0.1849E+02
   2.7100000  0.3118E+02  0.1913E+02
   2.7200000  0.3020E+02  0.1956E+02
   2.7300000  0.2924E+02  0.1978E+02
   2.7400000  0.2837E+02  0.1979E+02
   2.7500000  0.2762E+02  0.1965E+02
   2.7600000  0.2705E+02  0.1942E+02
   2.7700000  0.2665E+02  0.1917E+02
   2.7800000  0.2637E+02  0.1895E+02
   2.7900002  0.2619E+02  0.1879E+02
   2.8000000  0.2606E+02  0.1869E+02
   2.8099999  0.2596E+02  0.1863E+02
   2.8199999  0.2589E+02  0.1859E+02
   2.8299999  0.2585E+02  0.1858E+02
   2.8399999  0.2585E+02  0.1860E+02
   2.8499999  0.2590E+02  0.1868E+02
   2.8599999  0.2599E+02  0.1883E+02
   2.8699999  0.2610E+02  0.1908E+02
   2.8800001  0.2618E+02  0.1946E+02
   2.8900001  0.2616E+02  0.1998E+02
   2.9000001  0.2598E+02  0.2059E+02
   2.9100001  0.2557E+02  0.2123E+02
   2.9200001  0.2492E+02  0.2176E+02
   2.9300001  0.2409E+02  0.2209E+02
   2.9400001  0.2318E+02  0.2212E+02
   2.9499998  0.2234E+02  0.2186E+02
   2.9599998  0.2169E+02  0.2137E+02
   2.9699998  0.2130E+02  0.2078E+02
   2.9800000  0.2116E+02  0.2019E+02
   2.9900000  0.2121E+02  0.1970E+02
   3.0000000  0.2138E+02  0.1935E+02
   3.0100000  0.2160E+02  0.1915E+02
   3.0200000  0.2181E+02  0.1908E+02
   3.0300000  0.2197E+02  0.1912E+02
   3.0400000  0.2204E+02  0.1922E+02
   3.0500000  0.2202E+02  0.1934E+02
   3.0599999  0.2191E+02  0.1942E+02
   3.0700002  0.2175E+02  0.1943E+02
   3.0800002  0.2157E+02  0.1935E+02
   3.0899999  0.2142E+02  0.1920E+02
   3.0999999  0.2131E+02  0.1898E+02
   3.1099999  0.2125E+02  0.1871E+02
   3.1199999  0.2125E+02  0.1837E+02
   3.1299999  0.2134E+02  0.1798E+02
   3.1399999  0.2155E+02  0.1755E+02
   3.1499999  0.2191E+02  0.1712E+02
   3.1600001  0.2244E+02  0.1675E+02
   3.1700001  0.2310E+02  0.1650E+02
   3.1800001  0.2386E+02  0.1639E+02
   3.1900001  0.2466E+02  0.1647E+02
   3.2000000  0.2545E+02  0.1672E+02
   3.2100000  0.2618E+02  0.1713E+02
   3.2200000  0.2679E+02  0.1766E+02
   3.2300000  0.2727E+02  0.1825E+02
   3.2400000  0.2761E+02  0.1884E+02
   3.2500000  0.2785E+02  0.1937E+02
   3.2600000  0.2807E+02  0.1980E+02
   3.2700000  0.2831E+02  0.2017E+02
   3.2800000  0.2864E+02  0.2049E+02
   3.2900000  0.2907E+02  0.2083E+02
   3.3000000  0.2960E+02  0.2124E+02
   3.3099999  0.3019E+02  0.2176E+02
   3.3199999  0.3082E+02  0.2244E+02
   3.3299999  0.3142E+02  0.2329E+02
   3.3400002  0.3195E+02  0.2429E+02
   3.3500001  0.3235E+02  0.2543E+02
   3.3600001  0.3259E+02  0.2667E+02
   3.3700001  0.3266E+02  0.2796E+02
   3.3799999  0.3254E+02  0.2925E+02
   3.3899999  0.3223E+02  0.3051E+02
   3.3999999  0.3173E+02  0.3166E+02
   3.4100001  0.3109E+02  0.3262E+02
   3.4200001  0.3040E+02  0.3333E+02
   3.4300001  0.2980E+02  0.3379E+02
   3.4400001  0.2942E+02  0.3407E+02
   3.4500000  0.2934E+02  0.3431E+02
   3.4600000  0.2955E+02  0.3466E+02
   3.4700000  0.3000E+02  0.3528E+02
   3.4800000  0.3054E+02  0.3627E+02
   3.4900000  0.3102E+02  0.3764E+02
   3.5000000  0.3131E+02  0.3938E+02
   3.5100000  0.3126E+02  0.4142E+02
   3.5200000  0.3078E+02  0.4362E+02
   3.5300000  0.2986E+02  0.4585E+02
   3.5399997  0.2849E+02  0.4799E+02
   3.5499997  0.2673E+02  0.4992E+02
   3.5599997  0.2465E+02  0.5155E+02
   3.5700002  0.2235E+02  0.5283E+02
   3.5800002  0.1991E+02  0.5375E+02
   3.5900002  0.1741E+02  0.5428E+02
   3.6000001  0.1493E+02  0.5443E+02
   3.6100001  0.1257E+02  0.5420E+02
   3.6200001  0.1042E+02  0.5366E+02
   3.6300001  0.8573E+01  0.5288E+02
   3.6400001  0.7074E+01  0.5199E+02
   3.6500001  0.5917E+01  0.5113E+02
   3.6600001  0.5021E+01  0.5045E+02
   3.6699998  0.4248E+01  0.5003E+02
   3.6799998  0.3430E+01  0.4987E+02
   3.6899998  0.2412E+01  0.4989E+02
   3.6999998  0.1101E+01  0.4995E+02
   3.7099998 -0.5053E+00  0.4985E+02
   3.7199998 -0.2310E+01  0.4944E+02
   3.7299998 -0.4145E+01  0.4864E+02
   3.7399998 -0.5831E+01  0.4746E+02
   3.7500002 -0.7234E+01  0.4601E+02
   3.7600002 -0.8296E+01  0.4442E+02
   3.7700002 -0.9032E+01  0.4282E+02
   3.7800002 -0.9499E+01  0.4130E+02
   3.7900002 -0.9767E+01  0.3991E+02
   3.8000000 -0.9896E+01  0.3865E+02
   3.8099999 -0.9931E+01  0.3752E+02
   3.8199999 -0.9900E+01  0.3652E+02
   3.8299999 -0.9823E+01  0.3564E+02
   3.8399999 -0.9730E+01  0.3490E+02
   3.8499999 -0.9666E+01  0.3429E+02
   3.8599999 -0.9688E+01  0.3379E+02
   3.8699999 -0.9842E+01  0.3335E+02
   3.8799999 -0.1014E+02  0.3288E+02
   3.8899999 -0.1056E+02  0.3228E+02
   3.8999999 -0.1101E+02  0.3150E+02
   3.9099998 -0.1139E+02  0.3053E+02
   3.9199998 -0.1159E+02  0.2942E+02
   3.9299998 -0.1159E+02  0.2825E+02
   3.9400001 -0.1137E+02  0.2713E+02
   3.9500000 -0.1099E+02  0.2611E+02
   3.9600000 -0.1051E+02  0.2521E+02
   3.9700000 -0.9979E+01  0.2445E+02
   3.9800000 -0.9432E+01  0.2381E+02
   3.9900000 -0.8898E+01  0.2326E+02
   4.0000000 -0.8392E+01  0.2276E+02
   4.0100002 -0.7912E+01  0.2229E+02
   4.0200000 -0.7435E+01  0.2181E+02
   4.0299997 -0.6922E+01  0.2131E+02
   4.0400000 -0.6332E+01  0.2080E+02
   4.0499997 -0.5645E+01  0.2034E+02
   4.0599999 -0.4863E+01  0.1994E+02
   4.0699997 -0.4006E+01  0.1965E+02
   4.0799999 -0.3101E+01  0.1948E+02
   4.0899997 -0.2164E+01  0.1941E+02
   4.0999999 -0.1201E+01  0.1946E+02
   4.1099997 -0.2089E+00  0.1963E+02
   4.1200004  0.8103E+00  0.1993E+02
   4.1300001  0.1844E+01  0.2040E+02
   4.1400003  0.2866E+01  0.2107E+02
   4.1500001  0.3830E+01  0.2195E+02
   4.1599998  0.4679E+01  0.2306E+02
   4.1700001  0.5343E+01  0.2438E+02
   4.1799998  0.5758E+01  0.2586E+02
   4.1900001  0.5877E+01  0.2744E+02
   4.1999998  0.5688E+01  0.2903E+02
   4.2100000  0.5220E+01  0.3053E+02
   4.2199998  0.4525E+01  0.3191E+02
   4.2300000  0.3664E+01  0.3313E+02
   4.2399998  0.2690E+01  0.3420E+02
   4.2500000  0.1640E+01  0.3512E+02
   4.2599998  0.5466E+00  0.3593E+02
   4.2700000 -0.5764E+00  0.3665E+02
   4.2799997 -0.1742E+01  0.3732E+02
   4.2900000 -0.2994E+01  0.3796E+02
   4.3000002 -0.4386E+01  0.3855E+02
   4.3099999 -0.5947E+01  0.3903E+02
   4.3200002 -0.7664E+01  0.3932E+02
   4.3299999 -0.9485E+01  0.3936E+02
   4.3400002 -0.1134E+02  0.3913E+02
   4.3499999 -0.1316E+02  0.3865E+02
   4.3600001 -0.1492E+02  0.3792E+02
   4.3699999 -0.1659E+02  0.3698E+02
   4.3800001 -0.1815E+02  0.3581E+02
   4.3899999 -0.1955E+02  0.3442E+02
   4.4000001 -0.2075E+02  0.3281E+02
   4.4099998 -0.2166E+02  0.3103E+02
   4.4200001 -0.2224E+02  0.2914E+02
   4.4299998 -0.2246E+02  0.2724E+02
   4.4400001 -0.2232E+02  0.2544E+02
   4.4499998 -0.2189E+02  0.2382E+02
   4.4600000 -0.2122E+02  0.2245E+02
   4.4699998 -0.2042E+02  0.2136E+02
   4.4799995 -0.1955E+02  0.2058E+02
   4.4900002 -0.1870E+02  0.2008E+02
   4.5000000 -0.1795E+02  0.1983E+02
   4.5100002 -0.1737E+02  0.1980E+02
   4.5200000 -0.1701E+02  0.1990E+02
   4.5300002 -0.1689E+02  0.2004E+02
   4.5400000 -0.1699E+02  0.2013E+02
   4.5500002 -0.1726E+02  0.2008E+02
   4.5599999 -0.1761E+02  0.1984E+02
   4.5700002 -0.1795E+02  0.1943E+02
   4.5799999 -0.1819E+02  0.1889E+02
   4.5900002 -0.1832E+02  0.1829E+02
   4.5999999 -0.1835E+02  0.1769E+02
   4.6099997 -0.1830E+02  0.1714E+02
   4.6199999 -0.1823E+02  0.1664E+02
   4.6299996 -0.1817E+02  0.1617E+02
   4.6399999 -0.1813E+02  0.1570E+02
   4.6499996 -0.1810E+02  0.1521E+02
   4.6599998 -0.1805E+02  0.1468E+02
   4.6700001 -0.1797E+02  0.1411E+02
   4.6800003 -0.1782E+02  0.1353E+02
   4.6900001 -0.1762E+02  0.1295E+02
   4.7000003 -0.1736E+02  0.1239E+02
   4.7100000 -0.1704E+02  0.1186E+02
   4.7200003 -0.1668E+02  0.1137E+02
   4.7300000 -0.1629E+02  0.1093E+02
   4.7399998 -0.1588E+02  0.1053E+02
   4.7500000 -0.1547E+02  0.1018E+02
   4.7599998 -0.1504E+02  0.9861E+01
   4.7700000 -0.1461E+02  0.9565E+01
   4.7799997 -0.1417E+02  0.9292E+01
   4.7900000 -0.1369E+02  0.9051E+01
   4.7999997 -0.1318E+02  0.8853E+01
   4.8099999 -0.1265E+02  0.8715E+01
   4.8199997 -0.1210E+02  0.8652E+01
   4.8299999 -0.1155E+02  0.8677E+01
   4.8399997 -0.1102E+02  0.8796E+01
   4.8500004 -0.1054E+02  0.9009E+01
   4.8600001 -0.1014E+02  0.9310E+01
   4.8699999 -0.9836E+01  0.9682E+01
   4.8800001 -0.9662E+01  0.1009E+02
   4.8899999 -0.9627E+01  0.1051E+02
   4.9000001 -0.9730E+01  0.1088E+02
   4.9099998 -0.9950E+01  0.1116E+02
   4.9200001 -0.1025E+02  0.1132E+02
   4.9299998 -0.1058E+02  0.1135E+02
   4.9400001 -0.1089E+02  0.1126E+02
   4.9499998 -0.1116E+02  0.1106E+02
   4.9600000 -0.1135E+02  0.1080E+02
   4.9699998 -0.1148E+02  0.1050E+02
   4.9800000 -0.1155E+02  0.1018E+02
   4.9899998 -0.1157E+02  0.9844E+01
   5.0000000 -0.1155E+02  0.9490E+01
   5.0099998 -0.1146E+02  0.9122E+01
   5.0200000 -0.1131E+02  0.8754E+01
   5.0300002 -0.1108E+02  0.8407E+01
   5.0400000 -0.1078E+02  0.8106E+01
   5.0500002 -0.1044E+02  0.7868E+01
   5.0599999 -0.1007E+02  0.7702E+01
   5.0700002 -0.9697E+01  0.7608E+01
   5.0799999 -0.9338E+01  0.7581E+01
   5.0900002 -0.9010E+01  0.7611E+01
   5.0999999 -0.8722E+01  0.7682E+01
   5.1100001 -0.8481E+01  0.7777E+01
   5.1199999 -0.8284E+01  0.7880E+01
   5.1300001 -0.8123E+01  0.7976E+01
   5.1399999 -0.7983E+01  0.8057E+01
   5.1500001 -0.7848E+01  0.8126E+01
   5.1599998 -0.7706E+01  0.8191E+01
   5.1700001 -0.7554E+01  0.8271E+01
   5.1799998 -0.7402E+01  0.8382E+01
   5.1899996 -0.7266E+01  0.8532E+01
   5.1999998 -0.7172E+01  0.8720E+01
   5.2099996 -0.7140E+01  0.8931E+01
   5.2200003 -0.7184E+01  0.9137E+01
   5.2300000 -0.7302E+01  0.9306E+01
   5.2400002 -0.7476E+01  0.9407E+01
   5.2500000 -0.7675E+01  0.9421E+01
   5.2600002 -0.7861E+01  0.9343E+01
   5.2700000 -0.7999E+01  0.9189E+01
   5.2800002 -0.8063E+01  0.8984E+01
   5.2900000 -0.8043E+01  0.8764E+01
   5.3000002 -0.7943E+01  0.8560E+01
   5.3099999 -0.7777E+01  0.8400E+01
   5.3199997 -0.7567E+01  0.8301E+01
   5.3299999 -0.7336E+01  0.8276E+01
   5.3399997 -0.7111E+01  0.8325E+01
   5.3499999 -0.6917E+01  0.8443E+01
   5.3599997 -0.6778E+01  0.8619E+01
   5.3699999 -0.6714E+01  0.8830E+01
   5.3799996 -0.6737E+01  0.9046E+01
   5.3899999 -0.6844E+01  0.9228E+01
   5.4000001 -0.7013E+01  0.9343E+01
   5.4100003 -0.7206E+01  0.9374E+01
   5.4200001 -0.7386E+01  0.9326E+01
   5.4300003 -0.7524E+01  0.9219E+01
   5.4400001 -0.7610E+01  0.9083E+01
   5.4499998 -0.7647E+01  0.8939E+01
   5.4600000 -0.7647E+01  0.8804E+01
   5.4699998 -0.7620E+01  0.8684E+01
   5.4800000 -0.7577E+01  0.8580E+01
   5.4899998 -0.7526E+01  0.8488E+01
   5.5000000 -0.7468E+01  0.8404E+01
   5.5099998 -0.7401E+01  0.8323E+01
   5.5200000 -0.7321E+01  0.8249E+01
   5.5299997 -0.7226E+01  0.8187E+01
   5.5400000 -0.7120E+01  0.8145E+01
   5.5499997 -0.7011E+01  0.8125E+01
   5.5599999 -0.6908E+01  0.8126E+01
   5.5699997 -0.6818E+01  0.8141E+01
   5.5800004 -0.6743E+01  0.8159E+01
   5.5900002 -0.6676E+01  0.8171E+01
   5.5999999 -0.6608E+01  0.8174E+01
   5.6100001 -0.6526E+01  0.8170E+01
   5.6199999 -0.6421E+01  0.8168E+01
   5.6300001 -0.6291E+01  0.8184E+01
   5.6399999 -0.6142E+01  0.8232E+01
   5.6500001 -0.5986E+01  0.8322E+01
   5.6599998 -0.5837E+01  0.8456E+01
   5.6700001 -0.5709E+01  0.8631E+01
   5.6799998 -0.5612E+01  0.8841E+01
   5.6900001 -0.5553E+01  0.9078E+01
   5.6999998 -0.5535E+01  0.9332E+01
   5.7100000 -0.5562E+01  0.9594E+01
   5.7199998 -0.5630E+01  0.9852E+01
   5.7300000 -0.5732E+01  0.1010E+02
   5.7399998 -0.5855E+01  0.1034E+02
   5.7500000 -0.5991E+01  0.1057E+02
   5.7600002 -0.6146E+01  0.1083E+02
   5.7700000 -0.6338E+01  0.1111E+02
   5.7800002 -0.6597E+01  0.1142E+02
   5.7900000 -0.6956E+01  0.1174E+02
   5.8000002 -0.7435E+01  0.1203E+02
   5.8099999 -0.8031E+01  0.1223E+02
   5.8200002 -0.8708E+01  0.1228E+02
   5.8299999 -0.9408E+01  0.1217E+02
   5.8400002 -0.1007E+02  0.1189E+02
   5.8499999 -0.1063E+02  0.1150E+02
   5.8600001 -0.1108E+02  0.1103E+02
   5.8699999 -0.1143E+02  0.1053E+02
   5.8800001 -0.1170E+02  0.1002E+02
   5.8899999 -0.1191E+02  0.9519E+01
   5.8999996 -0.1206E+02  0.9013E+01
   5.9099998 -0.1216E+02  0.8501E+01
   5.9199996 -0.1221E+02  0.7985E+01
   5.9299998 -0.1219E+02  0.7473E+01
   5.9399996 -0.1211E+02  0.6976E+01
   5.9500003 -0.1198E+02  0.6504E+01
   5.9600000 -0.1179E+02  0.6067E+01
   5.9700003 -0.1155E+02  0.5673E+01
   5.9800000 -0.1128E+02  0.5330E+01
   5.9900002 -0.1098E+02  0.5044E+01
   6.0000000 -0.1067E+02  0.4816E+01
   6.0100002 -0.1035E+02  0.4646E+01
   6.0200000 -0.1005E+02  0.4531E+01
   6.0300002 -0.9767E+01  0.4465E+01
   6.0400000 -0.9517E+01  0.4442E+01
   6.0499997 -0.9307E+01  0.4448E+01
   6.0599999 -0.9144E+01  0.4470E+01
   6.0699997 -0.9024E+01  0.4489E+01
   6.0799999 -0.8940E+01  0.4490E+01
   6.0899997 -0.8876E+01  0.4465E+01
   6.0999999 -0.8819E+01  0.4411E+01
   6.1099997 -0.8753E+01  0.4334E+01
   6.1199999 -0.8671E+01  0.4242E+01
   6.1300001 -0.8570E+01  0.4143E+01
   6.1400003 -0.8449E+01  0.4048E+01
   6.1500001 -0.8310E+01  0.3961E+01
   6.1600003 -0.8156E+01  0.3889E+01
   6.1700001 -0.7993E+01  0.3835E+01
   6.1799998 -0.7823E+01  0.3801E+01
   6.1900001 -0.7650E+01  0.3788E+01
   6.1999998 -0.7477E+01  0.3797E+01
   6.2100000 -0.7308E+01  0.3830E+01
   6.2199998 -0.7147E+01  0.3890E+01
   6.2300000 -0.7002E+01  0.3979E+01
   6.2399998 -0.6883E+01  0.4094E+01
   6.2500000 -0.6801E+01  0.4230E+01
   6.2599998 -0.6764E+01  0.4375E+01
   6.2700000 -0.6775E+01  0.4513E+01
   6.2799997 -0.6831E+01  0.4626E+01
   6.2900000 -0.6920E+01  0.4700E+01
   6.2999997 -0.7025E+01  0.4726E+01
   6.3099999 -0.7125E+01  0.4703E+01
   6.3200002 -0.7203E+01  0.4642E+01
   6.3299999 -0.7249E+01  0.4555E+01
   6.3400002 -0.7261E+01  0.4462E+01
   6.3499999 -0.7244E+01  0.4376E+01
   6.3600001 -0.7208E+01  0.4306E+01
   6.3699999 -0.7167E+01  0.4253E+01
   6.3800001 -0.7128E+01  0.4214E+01
   6.3899999 -0.7098E+01  0.4181E+01
   6.4000001 -0.7075E+01  0.4144E+01
   6.4099998 -0.7053E+01  0.4100E+01
   6.4200001 -0.7023E+01  0.4049E+01
   6.4299998 -0.6982E+01  0.3997E+01
   6.4400001 -0.6932E+01  0.3951E+01
   6.4499998 -0.6876E+01  0.3914E+01
   6.4600000 -0.6819E+01  0.3885E+01
   6.4699998 -0.6760E+01  0.3862E+01
   6.4800000 -0.6700E+01  0.3845E+01
   6.4899998 -0.6635E+01  0.3837E+01
   6.5000000 -0.6568E+01  0.3845E+01
   6.5100002 -0.6506E+01  0.3873E+01
   6.5200000 -0.6461E+01  0.3921E+01
   6.5300002 -0.6444E+01  0.3982E+01
   6.5400000 -0.6461E+01  0.4043E+01
   6.5500002 -0.6511E+01  0.4087E+01
   6.5599999 -0.6584E+01  0.4101E+01
   6.5700002 -0.6664E+01  0.4077E+01
   6.5799999 -0.6736E+01  0.4020E+01
   6.5900002 -0.6789E+01  0.3935E+01
   6.5999999 -0.6818E+01  0.3833E+01
   6.6100001 -0.6819E+01  0.3723E+01
   6.6199999 -0.6793E+01  0.3613E+01
   6.6299996 -0.6741E+01  0.3512E+01
   6.6399999 -0.6669E+01  0.3428E+01
   6.6499996 -0.6583E+01  0.3368E+01
   6.6599998 -0.6495E+01  0.3332E+01
   6.6699996 -0.6414E+01  0.3317E+01
   6.6800003 -0.6344E+01  0.3318E+01
   6.6900001 -0.6287E+01  0.3326E+01
   6.7000003 -0.6242E+01  0.3337E+01
   6.7100000 -0.6204E+01  0.3348E+01
   6.7200003 -0.6170E+01  0.3362E+01
   6.7300000 -0.6142E+01  0.3381E+01
   6.7400002 -0.6120E+01  0.3406E+01
   6.7500000 -0.6110E+01  0.3438E+01
   6.7599998 -0.6118E+01  0.3475E+01
   6.7700000 -0.6148E+01  0.3511E+01
   6.7799997 -0.6202E+01  0.3535E+01
   6.7900000 -0.6276E+01  0.3537E+01
   6.7999997 -0.6361E+01  0.3509E+01
   6.8100004 -0.6445E+01  0.3449E+01
   6.8200002 -0.6517E+01  0.3359E+01
   6.8300004 -0.6567E+01  0.3247E+01
   6.8400002 -0.6591E+01  0.3122E+01
   6.8500004 -0.6589E+01  0.2992E+01
   6.8600001 -0.6563E+01  0.2866E+01
   6.8700004 -0.6517E+01  0.2748E+01
   6.8800001 -0.6456E+01  0.2641E+01
   6.8899999 -0.6384E+01  0.2547E+01
   6.9000001 -0.6304E+01  0.2466E+01
   6.9099998 -0.6219E+01  0.2399E+01
   6.9200001 -0.6133E+01  0.2345E+01
   6.9299998 -0.6048E+01  0.2305E+01
   6.9400001 -0.5967E+01  0.2276E+01
   6.9499998 -0.5894E+01  0.2256E+01
   6.9600000 -0.5830E+01  0.2243E+01
   6.9699998 -0.5776E+01  0.2232E+01
   6.9800000 -0.5732E+01  0.2218E+01
   6.9899998 -0.5694E+01  0.2199E+01
   7.0000000 -0.5661E+01  0.2173E+01
