# macroscopic dielectric function
# with local fields
# testparticle  RPA                 
# soenergy =  0.75 [eV] - valence/conduction stretching 1.00 /  1.00
# npwmat =   59  npwwfn =  283  nbands =    8  lomo =    2  nkibz =   60  nkbz = 1372
# energy range   0.00  7.00 [eV]
# lorentzian broadening =   0.0750 [eV]
# dsf factor     0.000000 [a.u.] 
# unit cell volume    266.630737 [a.u.] 
# G = (  0,  0,  0) [r.l.u.]
# G = ( 0.000000, 0.000000, 0.000000) [c.c.]
# G = ( 0.000000, 0.000000, 0.000000) [c.c. units of 2pi/a =  0.614974 a.u.]
# q -> 0 average over the three cartesian directions
# omega       eps_1       eps_2
   0.0000000  0.1067E+02  0.3767E-07
   0.0100000  0.1067E+02  0.6819E-03
   0.0200000  0.1067E+02  0.1364E-02
   0.0300000  0.1067E+02  0.2047E-02
   0.0400000  0.1067E+02  0.2729E-02
   0.0500000  0.1067E+02  0.3411E-02
   0.0600000  0.1067E+02  0.4094E-02
   0.0700000  0.1067E+02  0.4777E-02
   0.0800000  0.1067E+02  0.5461E-02
   0.0900000  0.1067E+02  0.6144E-02
   0.1000000  0.1067E+02  0.6829E-02
   0.1100000  0.1067E+02  0.7514E-02
   0.1200000  0.1067E+02  0.8199E-02
   0.1300000  0.1067E+02  0.8885E-02
   0.1400000  0.1067E+02  0.9571E-02
   0.1500000  0.1068E+02  0.1026E-01
   0.1600000  0.1068E+02  0.1095E-01
   0.1700000  0.1068E+02  0.1163E-01
   0.1800000  0.1068E+02  0.1232E-01
   0.1900000  0.1068E+02  0.1301E-01
   0.2000000  0.1068E+02  0.1370E-01
   0.2100000  0.1069E+02  0.1439E-01
   0.2200000  0.1069E+02  0.1509E-01
   0.2300000  0.1069E+02  0.1578E-01
   0.2400000  0.1069E+02  0.1647E-01
   0.2500000  0.1069E+02  0.1717E-01
   0.2600000  0.1070E+02  0.1787E-01
   0.2700000  0.1070E+02  0.1856E-01
   0.2800000  0.1070E+02  0.1926E-01
   0.2900000  0.1070E+02  0.1996E-01
   0.3000000  0.1071E+02  0.2067E-01
   0.3100000  0.1071E+02  0.2137E-01
   0.3200000  0.1071E+02  0.2207E-01
   0.3300000  0.1072E+02  0.2278E-01
   0.3400000  0.1072E+02  0.2349E-01
   0.3500000  0.1072E+02  0.2420E-01
   0.3600000  0.1073E+02  0.2491E-01
   0.3700000  0.1073E+02  0.2562E-01
   0.3800000  0.1073E+02  0.2633E-01
   0.3900000  0.1074E+02  0.2705E-01
   0.4000000  0.1074E+02  0.2777E-01
   0.4100000  0.1074E+02  0.2849E-01
   0.4200000  0.1075E+02  0.2921E-01
   0.4300000  0.1075E+02  0.2993E-01
   0.4400000  0.1075E+02  0.3066E-01
   0.4500000  0.1076E+02  0.3139E-01
   0.4600000  0.1076E+02  0.3212E-01
   0.4700000  0.1077E+02  0.3285E-01
   0.4800000  0.1077E+02  0.3358E-01
   0.4900000  0.1078E+02  0.3432E-01
   0.5000000  0.1078E+02  0.3506E-01
   0.5100000  0.1079E+02  0.3580E-01
   0.5200000  0.1079E+02  0.3654E-01
   0.5300000  0.1080E+02  0.3729E-01
   0.5400000  0.1080E+02  0.3804E-01
   0.5500000  0.1081E+02  0.3879E-01
   0.5599999  0.1081E+02  0.3954E-01
   0.5700000  0.1082E+02  0.4030E-01
   0.5800000  0.1082E+02  0.4106E-01
   0.5900000  0.1083E+02  0.4182E-01
   0.6000000  0.1083E+02  0.4259E-01
   0.6100000  0.1084E+02  0.4335E-01
   0.6200000  0.1084E+02  0.4413E-01
   0.6300000  0.1085E+02  0.4490E-01
   0.6400000  0.1086E+02  0.4568E-01
   0.6500000  0.1086E+02  0.4646E-01
   0.6600000  0.1087E+02  0.4724E-01
   0.6700000  0.1087E+02  0.4803E-01
   0.6800000  0.1088E+02  0.4882E-01
   0.6900000  0.1089E+02  0.4962E-01
   0.7000000  0.1089E+02  0.5041E-01
   0.7100000  0.1090E+02  0.5122E-01
   0.7200000  0.1091E+02  0.5202E-01
   0.7300000  0.1092E+02  0.5283E-01
   0.7399999  0.1092E+02  0.5364E-01
   0.7500000  0.1093E+02  0.5446E-01
   0.7600000  0.1094E+02  0.5528E-01
   0.7700000  0.1094E+02  0.5610E-01
   0.7800000  0.1095E+02  0.5693E-01
   0.7900000  0.1096E+02  0.5777E-01
   0.8000000  0.1097E+02  0.5860E-01
   0.8100000  0.1097E+02  0.5945E-01
   0.8200000  0.1098E+02  0.6029E-01
   0.8300000  0.1099E+02  0.6114E-01
   0.8400000  0.1100E+02  0.6200E-01
   0.8500000  0.1101E+02  0.6286E-01
   0.8600000  0.1102E+02  0.6372E-01
   0.8700000  0.1102E+02  0.6459E-01
   0.8800000  0.1103E+02  0.6547E-01
   0.8899999  0.1104E+02  0.6634E-01
   0.9000000  0.1105E+02  0.6723E-01
   0.9100000  0.1106E+02  0.6812E-01
   0.9200000  0.1107E+02  0.6901E-01
   0.9299999  0.1108E+02  0.6991E-01
   0.9400001  0.1109E+02  0.7082E-01
   0.9500000  0.1110E+02  0.7173E-01
   0.9600000  0.1111E+02  0.7265E-01
   0.9700000  0.1112E+02  0.7357E-01
   0.9800000  0.1113E+02  0.7450E-01
   0.9900000  0.1114E+02  0.7543E-01
   1.0000000  0.1115E+02  0.7637E-01
   1.0100000  0.1116E+02  0.7732E-01
   1.0200000  0.1117E+02  0.7827E-01
   1.0300001  0.1118E+02  0.7923E-01
   1.0400000  0.1119E+02  0.8019E-01
   1.0500000  0.1120E+02  0.8116E-01
   1.0599999  0.1121E+02  0.8214E-01
   1.0699999  0.1122E+02  0.8312E-01
   1.0800000  0.1123E+02  0.8412E-01
   1.0900000  0.1124E+02  0.8511E-01
   1.1000000  0.1125E+02  0.8612E-01
   1.1100000  0.1127E+02  0.8713E-01
   1.1199999  0.1128E+02  0.8815E-01
   1.1300000  0.1129E+02  0.8918E-01
   1.1400000  0.1130E+02  0.9021E-01
   1.1500000  0.1131E+02  0.9126E-01
   1.1600000  0.1133E+02  0.9231E-01
   1.1700001  0.1134E+02  0.9336E-01
   1.1800001  0.1135E+02  0.9443E-01
   1.1899999  0.1136E+02  0.9550E-01
   1.1999999  0.1138E+02  0.9659E-01
   1.2099999  0.1139E+02  0.9768E-01
   1.2200000  0.1140E+02  0.9878E-01
   1.2300000  0.1142E+02  0.9989E-01
   1.2400000  0.1143E+02  0.1010E+00
   1.2500000  0.1144E+02  0.1021E+00
   1.2600000  0.1146E+02  0.1033E+00
   1.2700000  0.1147E+02  0.1044E+00
   1.2800000  0.1148E+02  0.1056E+00
   1.2900000  0.1150E+02  0.1067E+00
   1.3000000  0.1151E+02  0.1079E+00
   1.3100001  0.1153E+02  0.1091E+00
   1.3200001  0.1154E+02  0.1103E+00
   1.3299999  0.1156E+02  0.1115E+00
   1.3399999  0.1157E+02  0.1127E+00
   1.3500000  0.1159E+02  0.1139E+00
   1.3600000  0.1160E+02  0.1152E+00
   1.3700000  0.1162E+02  0.1164E+00
   1.3800000  0.1163E+02  0.1177E+00
   1.3900000  0.1165E+02  0.1189E+00
   1.4000000  0.1166E+02  0.1202E+00
   1.4100000  0.1168E+02  0.1215E+00
   1.4200000  0.1170E+02  0.1228E+00
   1.4299999  0.1171E+02  0.1241E+00
   1.4400001  0.1173E+02  0.1254E+00
   1.4500000  0.1175E+02  0.1268E+00
   1.4600000  0.1176E+02  0.1281E+00
   1.4700000  0.1178E+02  0.1295E+00
   1.4799999  0.1180E+02  0.1309E+00
   1.4900000  0.1181E+02  0.1323E+00
   1.5000000  0.1183E+02  0.1337E+00
   1.5100000  0.1185E+02  0.1351E+00
   1.5200000  0.1187E+02  0.1365E+00
   1.5300000  0.1189E+02  0.1380E+00
   1.5400001  0.1191E+02  0.1395E+00
   1.5500000  0.1192E+02  0.1409E+00
   1.5599999  0.1194E+02  0.1424E+00
   1.5699999  0.1196E+02  0.1439E+00
   1.5800000  0.1198E+02  0.1455E+00
   1.5900000  0.1200E+02  0.1470E+00
   1.6000000  0.1202E+02  0.1486E+00
   1.6100000  0.1204E+02  0.1501E+00
   1.6200000  0.1206E+02  0.1517E+00
   1.6300000  0.1208E+02  0.1533E+00
   1.6400000  0.1210E+02  0.1550E+00
   1.6500000  0.1212E+02  0.1566E+00
   1.6600000  0.1214E+02  0.1583E+00
   1.6700001  0.1216E+02  0.1600E+00
   1.6800001  0.1219E+02  0.1617E+00
   1.6899999  0.1221E+02  0.1634E+00
   1.6999999  0.1223E+02  0.1651E+00
   1.7100000  0.1225E+02  0.1669E+00
   1.7200000  0.1227E+02  0.1687E+00
   1.7300000  0.1230E+02  0.1705E+00
   1.7400000  0.1232E+02  0.1723E+00
   1.7500000  0.1234E+02  0.1741E+00
   1.7600000  0.1236E+02  0.1760E+00
   1.7699999  0.1239E+02  0.1779E+00
   1.7799999  0.1241E+02  0.1798E+00
   1.7900001  0.1244E+02  0.1817E+00
   1.8000001  0.1246E+02  0.1837E+00
   1.8100001  0.1248E+02  0.1857E+00
   1.8200001  0.1251E+02  0.1877E+00
   1.8300000  0.1253E+02  0.1897E+00
   1.8399999  0.1256E+02  0.1917E+00
   1.8499999  0.1259E+02  0.1938E+00
   1.8599999  0.1261E+02  0.1959E+00
   1.8699999  0.1264E+02  0.1981E+00
   1.8800001  0.1266E+02  0.2002E+00
   1.8900001  0.1269E+02  0.2024E+00
   1.9000000  0.1272E+02  0.2047E+00
   1.9100000  0.1275E+02  0.2069E+00
   1.9200000  0.1277E+02  0.2092E+00
   1.9299999  0.1280E+02  0.2115E+00
   1.9399999  0.1283E+02  0.2138E+00
   1.9499999  0.1286E+02  0.2162E+00
   1.9599999  0.1289E+02  0.2186E+00
   1.9700000  0.1292E+02  0.2211E+00
   1.9800000  0.1295E+02  0.2236E+00
   1.9900000  0.1298E+02  0.2261E+00
   2.0000000  0.1301E+02  0.2286E+00
   2.0100000  0.1304E+02  0.2312E+00
   2.0200000  0.1307E+02  0.2338E+00
   2.0300000  0.1310E+02  0.2365E+00
   2.0400000  0.1313E+02  0.2392E+00
   2.0500000  0.1316E+02  0.2419E+00
   2.0600002  0.1319E+02  0.2447E+00
   2.0700002  0.1323E+02  0.2475E+00
   2.0799999  0.1326E+02  0.2504E+00
   2.0899999  0.1329E+02  0.2533E+00
   2.0999999  0.1333E+02  0.2563E+00
   2.1099999  0.1336E+02  0.2593E+00
   2.1199999  0.1340E+02  0.2623E+00
   2.1299999  0.1343E+02  0.2654E+00
   2.1399999  0.1347E+02  0.2686E+00
   2.1500001  0.1350E+02  0.2718E+00
   2.1600001  0.1354E+02  0.2750E+00
   2.1700001  0.1358E+02  0.2783E+00
   2.1800001  0.1361E+02  0.2817E+00
   2.1900001  0.1365E+02  0.2851E+00
   2.2000000  0.1369E+02  0.2886E+00
   2.2100000  0.1373E+02  0.2921E+00
   2.2200000  0.1377E+02  0.2957E+00
   2.2300000  0.1381E+02  0.2994E+00
   2.2399998  0.1385E+02  0.3031E+00
   2.2500000  0.1389E+02  0.3069E+00
   2.2600000  0.1393E+02  0.3107E+00
   2.2700000  0.1397E+02  0.3146E+00
   2.2800000  0.1401E+02  0.3186E+00
   2.2900000  0.1405E+02  0.3227E+00
   2.3000000  0.1410E+02  0.3268E+00
   2.3099999  0.1414E+02  0.3311E+00
   2.3199999  0.1418E+02  0.3353E+00
   2.3299999  0.1423E+02  0.3397E+00
   2.3400002  0.1427E+02  0.3442E+00
   2.3500001  0.1432E+02  0.3487E+00
   2.3600001  0.1437E+02  0.3534E+00
   2.3699999  0.1441E+02  0.3581E+00
   2.3799999  0.1446E+02  0.3629E+00
   2.3899999  0.1451E+02  0.3679E+00
   2.3999999  0.1456E+02  0.3729E+00
   2.4099998  0.1461E+02  0.3780E+00
   2.4199998  0.1466E+02  0.3832E+00
   2.4300001  0.1471E+02  0.3886E+00
   2.4400001  0.1476E+02  0.3940E+00
   2.4500000  0.1482E+02  0.3996E+00
   2.4600000  0.1487E+02  0.4053E+00
   2.4700000  0.1492E+02  0.4111E+00
   2.4800000  0.1498E+02  0.4171E+00
   2.4900000  0.1503E+02  0.4232E+00
   2.5000000  0.1509E+02  0.4294E+00
   2.5100000  0.1515E+02  0.4358E+00
   2.5200000  0.1521E+02  0.4423E+00
   2.5300000  0.1526E+02  0.4489E+00
   2.5400000  0.1532E+02  0.4558E+00
   2.5500000  0.1539E+02  0.4628E+00
   2.5599999  0.1545E+02  0.4699E+00
   2.5699999  0.1551E+02  0.4773E+00
   2.5799999  0.1557E+02  0.4848E+00
   2.5899999  0.1564E+02  0.4925E+00
   2.5999999  0.1570E+02  0.5004E+00
   2.6100001  0.1577E+02  0.5085E+00
   2.6200001  0.1584E+02  0.5168E+00
   2.6300001  0.1591E+02  0.5254E+00
   2.6400001  0.1598E+02  0.5342E+00
   2.6500001  0.1605E+02  0.5432E+00
   2.6599998  0.1612E+02  0.5525E+00
   2.6699998  0.1619E+02  0.5620E+00
   2.6799998  0.1627E+02  0.5718E+00
   2.6899998  0.1635E+02  0.5819E+00
   2.7000000  0.1642E+02  0.5923E+00
   2.7100000  0.1650E+02  0.6031E+00
   2.7200000  0.1658E+02  0.6141E+00
   2.7300000  0.1666E+02  0.6255E+00
   2.7400000  0.1675E+02  0.6372E+00
   2.7500000  0.1683E+02  0.6493E+00
   2.7600000  0.1692E+02  0.6618E+00
   2.7700000  0.1701E+02  0.6748E+00
   2.7800000  0.1710E+02  0.6881E+00
   2.7900002  0.1719E+02  0.7019E+00
   2.8000000  0.1728E+02  0.7162E+00
   2.8099999  0.1738E+02  0.7310E+00
   2.8199999  0.1747E+02  0.7464E+00
   2.8299999  0.1757E+02  0.7623E+00
   2.8399999  0.1767E+02  0.7788E+00
   2.8499999  0.1778E+02  0.7959E+00
   2.8599999  0.1788E+02  0.8137E+00
   2.8699999  0.1799E+02  0.8322E+00
   2.8800001  0.1810E+02  0.8515E+00
   2.8900001  0.1821E+02  0.8716E+00
   2.9000001  0.1833E+02  0.8925E+00
   2.9100001  0.1845E+02  0.9143E+00
   2.9200001  0.1857E+02  0.9372E+00
   2.9300001  0.1869E+02  0.9610E+00
   2.9400001  0.1882E+02  0.9860E+00
   2.9499998  0.1895E+02  0.1012E+01
   2.9599998  0.1908E+02  0.1040E+01
   2.9699998  0.1922E+02  0.1069E+01
   2.9800000  0.1936E+02  0.1099E+01
   2.9900000  0.1950E+02  0.1131E+01
   3.0000000  0.1965E+02  0.1165E+01
   3.0100000  0.1980E+02  0.1200E+01
   3.0200000  0.1996E+02  0.1238E+01
   3.0300000  0.2012E+02  0.1278E+01
   3.0400000  0.2029E+02  0.1321E+01
   3.0500000  0.2046E+02  0.1366E+01
   3.0599999  0.2064E+02  0.1414E+01
   3.0700002  0.2082E+02  0.1466E+01
   3.0800002  0.2101E+02  0.1521E+01
   3.0899999  0.2120E+02  0.1581E+01
   3.0999999  0.2140E+02  0.1645E+01
   3.1099999  0.2161E+02  0.1715E+01
   3.1199999  0.2183E+02  0.1790E+01
   3.1299999  0.2205E+02  0.1873E+01
   3.1399999  0.2228E+02  0.1962E+01
   3.1499999  0.2252E+02  0.2061E+01
   3.1600001  0.2277E+02  0.2170E+01
   3.1700001  0.2302E+02  0.2290E+01
   3.1800001  0.2329E+02  0.2423E+01
   3.1900001  0.2356E+02  0.2571E+01
   3.2000000  0.2384E+02  0.2737E+01
   3.2100000  0.2412E+02  0.2921E+01
   3.2200000  0.2440E+02  0.3126E+01
   3.2300000  0.2468E+02  0.3351E+01
   3.2400000  0.2495E+02  0.3596E+01
   3.2500000  0.2522E+02  0.3856E+01
   3.2600000  0.2547E+02  0.4126E+01
   3.2700000  0.2571E+02  0.4398E+01
   3.2800000  0.2596E+02  0.4666E+01
   3.2900000  0.2622E+02  0.4932E+01
   3.3000000  0.2650E+02  0.5203E+01
   3.3099999  0.2682E+02  0.5495E+01
   3.3199999  0.2716E+02  0.5825E+01
   3.3299999  0.2754E+02  0.6210E+01
   3.3400002  0.2793E+02  0.6666E+01
   3.3500001  0.2831E+02  0.7203E+01
   3.3600001  0.2867E+02  0.7828E+01
   3.3700001  0.2898E+02  0.8542E+01
   3.3799999  0.2922E+02  0.9336E+01
   3.3899999  0.2936E+02  0.1020E+02
   3.3999999  0.2940E+02  0.1111E+02
   3.4100001  0.2931E+02  0.1206E+02
   3.4200001  0.2909E+02  0.1302E+02
   3.4300001  0.2872E+02  0.1395E+02
   3.4400001  0.2820E+02  0.1484E+02
   3.4500000  0.2753E+02  0.1563E+02
   3.4600000  0.2674E+02  0.1627E+02
   3.4700000  0.2586E+02  0.1674E+02
   3.4800000  0.2495E+02  0.1700E+02
   3.4900000  0.2408E+02  0.1706E+02
   3.5000000  0.2332E+02  0.1695E+02
   3.5100000  0.2270E+02  0.1671E+02
   3.5200000  0.2225E+02  0.1641E+02
   3.5300000  0.2196E+02  0.1612E+02
   3.5399997  0.2177E+02  0.1587E+02
   3.5499997  0.2167E+02  0.1567E+02
   3.5599997  0.2161E+02  0.1553E+02
   3.5700002  0.2160E+02  0.1543E+02
   3.5800002  0.2162E+02  0.1537E+02
   3.5900002  0.2168E+02  0.1535E+02
   3.6000001  0.2178E+02  0.1539E+02
   3.6100001  0.2190E+02  0.1550E+02
   3.6200001  0.2204E+02  0.1571E+02
   3.6300001  0.2216E+02  0.1603E+02
   3.6400001  0.2221E+02  0.1647E+02
   3.6500001  0.2211E+02  0.1701E+02
   3.6600001  0.2183E+02  0.1759E+02
   3.6699998  0.2134E+02  0.1812E+02
   3.6799998  0.2065E+02  0.1850E+02
   3.6899998  0.1987E+02  0.1864E+02
   3.6999998  0.1911E+02  0.1851E+02
   3.7099998  0.1847E+02  0.1817E+02
   3.7199998  0.1804E+02  0.1770E+02
   3.7299998  0.1782E+02  0.1721E+02
   3.7399998  0.1778E+02  0.1677E+02
   3.7500002  0.1786E+02  0.1644E+02
   3.7600002  0.1799E+02  0.1624E+02
   3.7700002  0.1813E+02  0.1615E+02
   3.7800002  0.1824E+02  0.1616E+02
   3.7900002  0.1827E+02  0.1623E+02
   3.8000000  0.1821E+02  0.1632E+02
   3.8099999  0.1807E+02  0.1639E+02
   3.8199999  0.1787E+02  0.1638E+02
   3.8299999  0.1766E+02  0.1628E+02
   3.8399999  0.1747E+02  0.1611E+02
   3.8499999  0.1732E+02  0.1587E+02
   3.8599999  0.1722E+02  0.1558E+02
   3.8699999  0.1718E+02  0.1525E+02
   3.8799999  0.1722E+02  0.1486E+02
   3.8899999  0.1736E+02  0.1445E+02
   3.8999999  0.1763E+02  0.1404E+02
   3.9099998  0.1803E+02  0.1368E+02
   3.9199998  0.1854E+02  0.1340E+02
   3.9299998  0.1914E+02  0.1325E+02
   3.9400001  0.1977E+02  0.1325E+02
   3.9500000  0.2040E+02  0.1338E+02
   3.9600000  0.2097E+02  0.1365E+02
   3.9700000  0.2145E+02  0.1402E+02
   3.9800000  0.2181E+02  0.1445E+02
   3.9900000  0.2205E+02  0.1487E+02
   4.0000000  0.2220E+02  0.1523E+02
   4.0100002  0.2232E+02  0.1550E+02
   4.0200000  0.2245E+02  0.1569E+02
   4.0299997  0.2265E+02  0.1582E+02
   4.0400000  0.2295E+02  0.1593E+02
   4.0499997  0.2335E+02  0.1609E+02
   4.0599999  0.2383E+02  0.1632E+02
   4.0699997  0.2437E+02  0.1667E+02
   4.0799999  0.2490E+02  0.1715E+02
   4.0899997  0.2541E+02  0.1776E+02
   4.0999999  0.2584E+02  0.1849E+02
   4.1099997  0.2617E+02  0.1931E+02
   4.1200004  0.2637E+02  0.2019E+02
   4.1300001  0.2644E+02  0.2111E+02
   4.1400003  0.2636E+02  0.2201E+02
   4.1500001  0.2613E+02  0.2286E+02
   4.1599998  0.2576E+02  0.2359E+02
   4.1700001  0.2533E+02  0.2414E+02
   4.1799998  0.2492E+02  0.2449E+02
   4.1900001  0.2464E+02  0.2465E+02
   4.1999998  0.2458E+02  0.2473E+02
   4.2100000  0.2476E+02  0.2482E+02
   4.2199998  0.2516E+02  0.2506E+02
   4.2300000  0.2570E+02  0.2552E+02
   4.2399998  0.2629E+02  0.2626E+02
   4.2500000  0.2684E+02  0.2727E+02
   4.2599998  0.2724E+02  0.2854E+02
   4.2700000  0.2742E+02  0.3001E+02
   4.2799997  0.2734E+02  0.3162E+02
   4.2900000  0.2696E+02  0.3328E+02
   4.3000002  0.2631E+02  0.3492E+02
   4.3099999  0.2538E+02  0.3648E+02
   4.3200002  0.2421E+02  0.3789E+02
   4.3299999  0.2284E+02  0.3913E+02
   4.3400002  0.2131E+02  0.4015E+02
   4.3499999  0.1967E+02  0.4091E+02
   4.3600001  0.1799E+02  0.4140E+02
   4.3699999  0.1634E+02  0.4160E+02
   4.3800001  0.1482E+02  0.4155E+02
   4.3899999  0.1352E+02  0.4130E+02
   4.4000001  0.1247E+02  0.4097E+02
   4.4099998  0.1168E+02  0.4070E+02
   4.4200001  0.1106E+02  0.4060E+02
   4.4299998  0.1049E+02  0.4073E+02
   4.4400001  0.9820E+01  0.4107E+02
   4.4499998  0.8924E+01  0.4156E+02
   4.4600000  0.7731E+01  0.4206E+02
   4.4699998  0.6248E+01  0.4240E+02
   4.4799995  0.4564E+01  0.4244E+02
   4.4900002  0.2828E+01  0.4212E+02
   4.5000000  0.1193E+01  0.4146E+02
   4.5100002 -0.2291E+00  0.4054E+02
   4.5200000 -0.1390E+01  0.3946E+02
   4.5300002 -0.2295E+01  0.3834E+02
   4.5400000 -0.2982E+01  0.3724E+02
   4.5500002 -0.3496E+01  0.3619E+02
   4.5599999 -0.3876E+01  0.3522E+02
   4.5700002 -0.4146E+01  0.3433E+02
   4.5799999 -0.4327E+01  0.3353E+02
   4.5900002 -0.4442E+01  0.3285E+02
   4.5999999 -0.4534E+01  0.3231E+02
   4.6099997 -0.4664E+01  0.3190E+02
   4.6199999 -0.4899E+01  0.3160E+02
   4.6299996 -0.5293E+01  0.3133E+02
   4.6399999 -0.5857E+01  0.3100E+02
   4.6499996 -0.6545E+01  0.3051E+02
   4.6599998 -0.7258E+01  0.2979E+02
   4.6700001 -0.7880E+01  0.2885E+02
   4.6800003 -0.8317E+01  0.2775E+02
   4.6900001 -0.8527E+01  0.2658E+02
   4.7000003 -0.8524E+01  0.2544E+02
   4.7100000 -0.8351E+01  0.2438E+02
   4.7200003 -0.8061E+01  0.2344E+02
   4.7300000 -0.7702E+01  0.2260E+02
   4.7399998 -0.7313E+01  0.2188E+02
   4.7500000 -0.6920E+01  0.2123E+02
   4.7599998 -0.6537E+01  0.2063E+02
   4.7700000 -0.6158E+01  0.2005E+02
   4.7799997 -0.5758E+01  0.1946E+02
   4.7900000 -0.5303E+01  0.1887E+02
   4.7999997 -0.4769E+01  0.1831E+02
   4.8099999 -0.4153E+01  0.1779E+02
   4.8199997 -0.3471E+01  0.1736E+02
   4.8299999 -0.2745E+01  0.1701E+02
   4.8399997 -0.1990E+01  0.1674E+02
   4.8500004 -0.1212E+01  0.1655E+02
   4.8600001 -0.4045E+00  0.1643E+02
   4.8699999  0.4413E+00  0.1639E+02
   4.8800001  0.1327E+01  0.1646E+02
   4.8899999  0.2245E+01  0.1664E+02
   4.9000001  0.3174E+01  0.1698E+02
   4.9099998  0.4081E+01  0.1748E+02
   4.9200001  0.4926E+01  0.1814E+02
   4.9299998  0.5665E+01  0.1897E+02
   4.9400001  0.6260E+01  0.1993E+02
   4.9499998  0.6685E+01  0.2098E+02
   4.9600000  0.6935E+01  0.2207E+02
   4.9699998  0.7024E+01  0.2316E+02
   4.9800000  0.6973E+01  0.2423E+02
   4.9899998  0.6804E+01  0.2527E+02
   5.0000000  0.6538E+01  0.2626E+02
   5.0099998  0.6198E+01  0.2721E+02
   5.0200000  0.5803E+01  0.2813E+02
   5.0300002  0.5360E+01  0.2905E+02
   5.0400000  0.4852E+01  0.3000E+02
   5.0500002  0.4237E+01  0.3099E+02
   5.0599999  0.3469E+01  0.3200E+02
   5.0700002  0.2516E+01  0.3299E+02
   5.0799999  0.1372E+01  0.3390E+02
   5.0900002  0.5464E-01  0.3469E+02
   5.0999999 -0.1409E+01  0.3534E+02
   5.1100001 -0.3000E+01  0.3581E+02
   5.1199999 -0.4712E+01  0.3611E+02
   5.1300001 -0.6542E+01  0.3618E+02
   5.1399999 -0.8469E+01  0.3598E+02
   5.1500001 -0.1044E+02  0.3543E+02
   5.1599998 -0.1234E+02  0.3449E+02
   5.1700001 -0.1406E+02  0.3316E+02
   5.1799998 -0.1545E+02  0.3150E+02
   5.1899996 -0.1641E+02  0.2963E+02
   5.1999998 -0.1690E+02  0.2771E+02
   5.2099996 -0.1696E+02  0.2589E+02
   5.2200003 -0.1666E+02  0.2427E+02
   5.2300000 -0.1611E+02  0.2294E+02
   5.2400002 -0.1542E+02  0.2193E+02
   5.2500000 -0.1467E+02  0.2122E+02
   5.2600002 -0.1396E+02  0.2080E+02
   5.2700000 -0.1336E+02  0.2062E+02
   5.2800002 -0.1293E+02  0.2062E+02
   5.2900000 -0.1270E+02  0.2072E+02
   5.3000002 -0.1267E+02  0.2085E+02
   5.3099999 -0.1282E+02  0.2092E+02
   5.3199997 -0.1309E+02  0.2089E+02
   5.3299999 -0.1341E+02  0.2074E+02
   5.3399997 -0.1373E+02  0.2047E+02
   5.3499999 -0.1400E+02  0.2015E+02
   5.3599997 -0.1423E+02  0.1979E+02
   5.3699999 -0.1444E+02  0.1945E+02
   5.3799996 -0.1466E+02  0.1911E+02
   5.3899999 -0.1493E+02  0.1876E+02
   5.4000001 -0.1523E+02  0.1834E+02
   5.4100003 -0.1555E+02  0.1784E+02
   5.4200001 -0.1582E+02  0.1723E+02
   5.4300003 -0.1603E+02  0.1655E+02
   5.4400001 -0.1613E+02  0.1582E+02
   5.4499998 -0.1613E+02  0.1506E+02
   5.4600000 -0.1603E+02  0.1432E+02
   5.4699998 -0.1585E+02  0.1362E+02
   5.4800000 -0.1559E+02  0.1297E+02
   5.4899998 -0.1529E+02  0.1237E+02
   5.5000000 -0.1495E+02  0.1183E+02
   5.5099998 -0.1460E+02  0.1132E+02
   5.5200000 -0.1423E+02  0.1085E+02
   5.5299997 -0.1384E+02  0.1040E+02
   5.5400000 -0.1340E+02  0.9978E+01
   5.5499997 -0.1292E+02  0.9598E+01
   5.5599999 -0.1239E+02  0.9276E+01
   5.5699997 -0.1183E+02  0.9028E+01
   5.5800004 -0.1125E+02  0.8867E+01
   5.5900002 -0.1066E+02  0.8802E+01
   5.5999999 -0.1010E+02  0.8835E+01
   5.6100001 -0.9578E+01  0.8967E+01
   5.6199999 -0.9123E+01  0.9187E+01
   5.6300001 -0.8759E+01  0.9482E+01
   5.6399999 -0.8505E+01  0.9828E+01
   5.6500001 -0.8376E+01  0.1019E+02
   5.6599998 -0.8372E+01  0.1054E+02
   5.6700001 -0.8482E+01  0.1083E+02
   5.6799998 -0.8678E+01  0.1103E+02
   5.6900001 -0.8924E+01  0.1112E+02
   5.6999998 -0.9179E+01  0.1111E+02
   5.7100000 -0.9414E+01  0.1102E+02
   5.7199998 -0.9615E+01  0.1086E+02
   5.7300000 -0.9781E+01  0.1065E+02
   5.7399998 -0.9918E+01  0.1041E+02
   5.7500000 -0.1002E+02  0.1012E+02
   5.7600002 -0.1008E+02  0.9783E+01
   5.7700000 -0.1008E+02  0.9411E+01
   5.7800002 -0.9992E+01  0.9024E+01
   5.7900000 -0.9820E+01  0.8651E+01
   5.8000002 -0.9574E+01  0.8321E+01
   5.8099999 -0.9275E+01  0.8052E+01
   5.8200002 -0.8947E+01  0.7853E+01
   5.8299999 -0.8612E+01  0.7724E+01
   5.8400002 -0.8292E+01  0.7658E+01
   5.8499999 -0.8000E+01  0.7641E+01
   5.8600001 -0.7746E+01  0.7658E+01
   5.8699999 -0.7531E+01  0.7691E+01
   5.8800001 -0.7351E+01  0.7722E+01
   5.8899999 -0.7191E+01  0.7741E+01
   5.8999996 -0.7036E+01  0.7745E+01
   5.9099998 -0.6869E+01  0.7741E+01
   5.9199996 -0.6682E+01  0.7745E+01
   5.9299998 -0.6476E+01  0.7775E+01
   5.9399996 -0.6265E+01  0.7848E+01
   5.9500003 -0.6067E+01  0.7972E+01
   5.9600000 -0.5906E+01  0.8144E+01
   5.9700003 -0.5805E+01  0.8353E+01
   5.9800000 -0.5779E+01  0.8573E+01
   5.9900002 -0.5834E+01  0.8775E+01
   6.0000000 -0.5958E+01  0.8927E+01
   6.0100002 -0.6128E+01  0.9001E+01
   6.0200000 -0.6309E+01  0.8986E+01
   6.0300002 -0.6462E+01  0.8885E+01
   6.0400000 -0.6555E+01  0.8721E+01
   6.0499997 -0.6571E+01  0.8526E+01
   6.0599999 -0.6508E+01  0.8332E+01
   6.0699997 -0.6378E+01  0.8171E+01
   6.0799999 -0.6199E+01  0.8062E+01
   6.0899997 -0.5995E+01  0.8016E+01
   6.0999999 -0.5790E+01  0.8039E+01
   6.1099997 -0.5608E+01  0.8126E+01
   6.1199999 -0.5470E+01  0.8268E+01
   6.1300001 -0.5399E+01  0.8446E+01
   6.1400003 -0.5405E+01  0.8631E+01
   6.1500001 -0.5487E+01  0.8789E+01
   6.1600003 -0.5626E+01  0.8891E+01
   6.1700001 -0.5790E+01  0.8922E+01
   6.1799998 -0.5949E+01  0.8884E+01
   6.1900001 -0.6079E+01  0.8792E+01
   6.1999998 -0.6170E+01  0.8666E+01
   6.2100000 -0.6222E+01  0.8522E+01
   6.2199998 -0.6238E+01  0.8373E+01
   6.2300000 -0.6223E+01  0.8226E+01
   6.2399998 -0.6183E+01  0.8086E+01
   6.2500000 -0.6123E+01  0.7955E+01
   6.2599998 -0.6045E+01  0.7830E+01
   6.2700000 -0.5947E+01  0.7716E+01
   6.2799997 -0.5830E+01  0.7617E+01
   6.2900000 -0.5698E+01  0.7537E+01
   6.2999997 -0.5558E+01  0.7483E+01
   6.3099999 -0.5419E+01  0.7452E+01
   6.3200002 -0.5289E+01  0.7440E+01
   6.3299999 -0.5173E+01  0.7437E+01
   6.3400002 -0.5069E+01  0.7434E+01
   6.3499999 -0.4969E+01  0.7423E+01
   6.3600001 -0.4862E+01  0.7399E+01
   6.3699999 -0.4737E+01  0.7369E+01
   6.3800001 -0.4583E+01  0.7341E+01
   6.3899999 -0.4400E+01  0.7331E+01
   6.4000001 -0.4192E+01  0.7352E+01
   6.4099998 -0.3971E+01  0.7413E+01
   6.4200001 -0.3747E+01  0.7518E+01
   6.4299998 -0.3533E+01  0.7666E+01
   6.4400001 -0.3339E+01  0.7853E+01
   6.4499998 -0.3172E+01  0.8074E+01
   6.4600000 -0.3037E+01  0.8319E+01
   6.4699998 -0.2937E+01  0.8577E+01
   6.4800000 -0.2866E+01  0.8839E+01
   6.4899998 -0.2812E+01  0.9099E+01
   6.5000000 -0.2762E+01  0.9361E+01
   6.5100002 -0.2707E+01  0.9643E+01
   6.5200000 -0.2649E+01  0.9965E+01
   6.5300002 -0.2608E+01  0.1035E+02
   6.5400000 -0.2612E+01  0.1081E+02
   6.5500002 -0.2699E+01  0.1133E+02
   6.5599999 -0.2906E+01  0.1190E+02
   6.5700002 -0.3260E+01  0.1248E+02
   6.5799999 -0.3771E+01  0.1302E+02
   6.5900002 -0.4418E+01  0.1344E+02
   6.5999999 -0.5160E+01  0.1373E+02
   6.6100001 -0.5940E+01  0.1387E+02
   6.6199999 -0.6715E+01  0.1386E+02
   6.6299996 -0.7463E+01  0.1374E+02
   6.6399999 -0.8180E+01  0.1352E+02
   6.6499996 -0.8868E+01  0.1322E+02
   6.6599998 -0.9518E+01  0.1281E+02
   6.6699996 -0.1011E+02  0.1231E+02
   6.6800003 -0.1061E+02  0.1170E+02
   6.6900001 -0.1101E+02  0.1103E+02
   6.7000003 -0.1127E+02  0.1031E+02
   6.7100000 -0.1141E+02  0.9572E+01
   6.7200003 -0.1141E+02  0.8857E+01
   6.7300000 -0.1130E+02  0.8190E+01
   6.7400002 -0.1109E+02  0.7595E+01
   6.7500000 -0.1081E+02  0.7086E+01
   6.7599998 -0.1049E+02  0.6669E+01
   6.7700000 -0.1015E+02  0.6343E+01
   6.7799997 -0.9815E+01  0.6103E+01
   6.7900000 -0.9499E+01  0.5939E+01
   6.7999997 -0.9221E+01  0.5835E+01
   6.8100004 -0.8991E+01  0.5774E+01
   6.8200002 -0.8813E+01  0.5732E+01
   6.8300004 -0.8684E+01  0.5690E+01
   6.8400002 -0.8588E+01  0.5629E+01
   6.8500004 -0.8509E+01  0.5544E+01
   6.8600001 -0.8431E+01  0.5435E+01
   6.8700004 -0.8342E+01  0.5309E+01
   6.8800001 -0.8236E+01  0.5176E+01
   6.8899999 -0.8113E+01  0.5042E+01
   6.9000001 -0.7971E+01  0.4914E+01
   6.9099998 -0.7815E+01  0.4798E+01
   6.9200001 -0.7646E+01  0.4696E+01
   6.9299998 -0.7467E+01  0.4610E+01
   6.9400001 -0.7279E+01  0.4542E+01
   6.9499998 -0.7082E+01  0.4494E+01
   6.9600000 -0.6878E+01  0.4471E+01
   6.9699998 -0.6670E+01  0.4478E+01
   6.9800000 -0.6465E+01  0.4520E+01
   6.9899998 -0.6273E+01  0.4601E+01
   7.0000000 -0.6106E+01  0.4720E+01
