# macroscopic dielectric function
# without local fields
# testparticle  RPA                 
# soenergy =  0.75 [eV] - valence/conduction stretching 1.00 /  1.00
# npwmat =   59  npwwfn =  283  nbands =    8  lomo =    2  nkibz =   60  nkbz = 1372
# energy range   0.00  7.00 [eV]
# lorentzian broadening =   0.0750 [eV]
# dsf factor     0.000000 [a.u.] 
# unit cell volume    266.630737 [a.u.] 
# G = (  0,  0,  0) [r.l.u.]
# G = ( 0.000000, 0.000000, 0.000000) [c.c.]
# G = ( 0.000000, 0.000000, 0.000000) [c.c. units of 2pi/a =  0.614974 a.u.]
# q -> 0 average over the three cartesian directions
# omega       eps_1       eps_2
   0.0000000  0.1173E+02 -0.3254E-08
   0.0100000  0.1173E+02  0.7962E-03
   0.0200000  0.1173E+02  0.1592E-02
   0.0300000  0.1173E+02  0.2389E-02
   0.0400000  0.1173E+02  0.3185E-02
   0.0500000  0.1173E+02  0.3982E-02
   0.0600000  0.1173E+02  0.4779E-02
   0.0700000  0.1173E+02  0.5577E-02
   0.0800000  0.1173E+02  0.6374E-02
   0.0900000  0.1173E+02  0.7173E-02
   0.1000000  0.1173E+02  0.7971E-02
   0.1100000  0.1174E+02  0.8770E-02
   0.1200000  0.1174E+02  0.9570E-02
   0.1300000  0.1174E+02  0.1037E-01
   0.1400000  0.1174E+02  0.1117E-01
   0.1500000  0.1174E+02  0.1197E-01
   0.1600000  0.1174E+02  0.1278E-01
   0.1700000  0.1174E+02  0.1358E-01
   0.1800000  0.1175E+02  0.1438E-01
   0.1900000  0.1175E+02  0.1519E-01
   0.2000000  0.1175E+02  0.1600E-01
   0.2100000  0.1175E+02  0.1680E-01
   0.2200000  0.1175E+02  0.1761E-01
   0.2300000  0.1176E+02  0.1842E-01
   0.2400000  0.1176E+02  0.1923E-01
   0.2500000  0.1176E+02  0.2005E-01
   0.2600000  0.1176E+02  0.2086E-01
   0.2700000  0.1177E+02  0.2167E-01
   0.2800000  0.1177E+02  0.2249E-01
   0.2900000  0.1177E+02  0.2331E-01
   0.3000000  0.1178E+02  0.2413E-01
   0.3100000  0.1178E+02  0.2495E-01
   0.3200000  0.1178E+02  0.2577E-01
   0.3300000  0.1179E+02  0.2660E-01
   0.3400000  0.1179E+02  0.2742E-01
   0.3500000  0.1179E+02  0.2825E-01
   0.3600000  0.1180E+02  0.2908E-01
   0.3700000  0.1180E+02  0.2992E-01
   0.3800000  0.1181E+02  0.3075E-01
   0.3900000  0.1181E+02  0.3159E-01
   0.4000000  0.1181E+02  0.3243E-01
   0.4100000  0.1182E+02  0.3327E-01
   0.4200000  0.1182E+02  0.3411E-01
   0.4300000  0.1183E+02  0.3496E-01
   0.4400000  0.1183E+02  0.3580E-01
   0.4500000  0.1184E+02  0.3665E-01
   0.4600000  0.1184E+02  0.3751E-01
   0.4700000  0.1185E+02  0.3836E-01
   0.4800000  0.1185E+02  0.3922E-01
   0.4900000  0.1186E+02  0.4008E-01
   0.5000000  0.1186E+02  0.4095E-01
   0.5100000  0.1187E+02  0.4181E-01
   0.5200000  0.1187E+02  0.4268E-01
   0.5300000  0.1188E+02  0.4356E-01
   0.5400000  0.1189E+02  0.4443E-01
   0.5500000  0.1189E+02  0.4531E-01
   0.5599999  0.1190E+02  0.4619E-01
   0.5700000  0.1190E+02  0.4708E-01
   0.5800000  0.1191E+02  0.4797E-01
   0.5900000  0.1192E+02  0.4886E-01
   0.6000000  0.1192E+02  0.4976E-01
   0.6100000  0.1193E+02  0.5066E-01
   0.6200000  0.1194E+02  0.5156E-01
   0.6300000  0.1194E+02  0.5246E-01
   0.6400000  0.1195E+02  0.5338E-01
   0.6500000  0.1196E+02  0.5429E-01
   0.6600000  0.1197E+02  0.5521E-01
   0.6700000  0.1197E+02  0.5613E-01
   0.6800000  0.1198E+02  0.5706E-01
   0.6900000  0.1199E+02  0.5799E-01
   0.7000000  0.1200E+02  0.5892E-01
   0.7100000  0.1200E+02  0.5986E-01
   0.7200000  0.1201E+02  0.6081E-01
   0.7300000  0.1202E+02  0.6175E-01
   0.7399999  0.1203E+02  0.6271E-01
   0.7500000  0.1204E+02  0.6366E-01
   0.7600000  0.1205E+02  0.6463E-01
   0.7700000  0.1205E+02  0.6559E-01
   0.7800000  0.1206E+02  0.6656E-01
   0.7900000  0.1207E+02  0.6754E-01
   0.8000000  0.1208E+02  0.6852E-01
   0.8100000  0.1209E+02  0.6951E-01
   0.8200000  0.1210E+02  0.7050E-01
   0.8300000  0.1211E+02  0.7150E-01
   0.8400000  0.1212E+02  0.7250E-01
   0.8500000  0.1213E+02  0.7351E-01
   0.8600000  0.1214E+02  0.7453E-01
   0.8700000  0.1215E+02  0.7555E-01
   0.8800000  0.1216E+02  0.7658E-01
   0.8899999  0.1217E+02  0.7761E-01
   0.9000000  0.1218E+02  0.7865E-01
   0.9100000  0.1219E+02  0.7969E-01
   0.9200000  0.1220E+02  0.8074E-01
   0.9299999  0.1221E+02  0.8180E-01
   0.9400001  0.1222E+02  0.8286E-01
   0.9500000  0.1223E+02  0.8393E-01
   0.9600000  0.1224E+02  0.8501E-01
   0.9700000  0.1226E+02  0.8609E-01
   0.9800000  0.1227E+02  0.8718E-01
   0.9900000  0.1228E+02  0.8828E-01
   1.0000000  0.1229E+02  0.8939E-01
   1.0100000  0.1230E+02  0.9050E-01
   1.0200000  0.1231E+02  0.9162E-01
   1.0300001  0.1233E+02  0.9275E-01
   1.0400000  0.1234E+02  0.9388E-01
   1.0500000  0.1235E+02  0.9502E-01
   1.0599999  0.1236E+02  0.9617E-01
   1.0699999  0.1238E+02  0.9733E-01
   1.0800000  0.1239E+02  0.9850E-01
   1.0900000  0.1240E+02  0.9967E-01
   1.1000000  0.1242E+02  0.1009E+00
   1.1100000  0.1243E+02  0.1021E+00
   1.1199999  0.1244E+02  0.1033E+00
   1.1300000  0.1246E+02  0.1045E+00
   1.1400000  0.1247E+02  0.1057E+00
   1.1500000  0.1249E+02  0.1069E+00
   1.1600000  0.1250E+02  0.1081E+00
   1.1700001  0.1251E+02  0.1094E+00
   1.1800001  0.1253E+02  0.1106E+00
   1.1899999  0.1254E+02  0.1119E+00
   1.1999999  0.1256E+02  0.1132E+00
   1.2099999  0.1257E+02  0.1145E+00
   1.2200000  0.1259E+02  0.1158E+00
   1.2300000  0.1261E+02  0.1171E+00
   1.2400000  0.1262E+02  0.1184E+00
   1.2500000  0.1264E+02  0.1197E+00
   1.2600000  0.1265E+02  0.1211E+00
   1.2700000  0.1267E+02  0.1224E+00
   1.2800000  0.1269E+02  0.1238E+00
   1.2900000  0.1270E+02  0.1252E+00
   1.3000000  0.1272E+02  0.1265E+00
   1.3100001  0.1274E+02  0.1279E+00
   1.3200001  0.1275E+02  0.1293E+00
   1.3299999  0.1277E+02  0.1308E+00
   1.3399999  0.1279E+02  0.1322E+00
   1.3500000  0.1281E+02  0.1336E+00
   1.3600000  0.1282E+02  0.1351E+00
   1.3700000  0.1284E+02  0.1366E+00
   1.3800000  0.1286E+02  0.1381E+00
   1.3900000  0.1288E+02  0.1396E+00
   1.4000000  0.1290E+02  0.1411E+00
   1.4100000  0.1292E+02  0.1426E+00
   1.4200000  0.1293E+02  0.1442E+00
   1.4299999  0.1295E+02  0.1457E+00
   1.4400001  0.1297E+02  0.1473E+00
   1.4500000  0.1299E+02  0.1489E+00
   1.4600000  0.1301E+02  0.1505E+00
   1.4700000  0.1303E+02  0.1521E+00
   1.4799999  0.1305E+02  0.1537E+00
   1.4900000  0.1307E+02  0.1554E+00
   1.5000000  0.1309E+02  0.1570E+00
   1.5100000  0.1312E+02  0.1587E+00
   1.5200000  0.1314E+02  0.1604E+00
   1.5300000  0.1316E+02  0.1621E+00
   1.5400001  0.1318E+02  0.1639E+00
   1.5500000  0.1320E+02  0.1656E+00
   1.5599999  0.1322E+02  0.1674E+00
   1.5699999  0.1325E+02  0.1692E+00
   1.5800000  0.1327E+02  0.1710E+00
   1.5900000  0.1329E+02  0.1728E+00
   1.6000000  0.1332E+02  0.1747E+00
   1.6100000  0.1334E+02  0.1766E+00
   1.6200000  0.1336E+02  0.1784E+00
   1.6300000  0.1339E+02  0.1804E+00
   1.6400000  0.1341E+02  0.1823E+00
   1.6500000  0.1343E+02  0.1842E+00
   1.6600000  0.1346E+02  0.1862E+00
   1.6700001  0.1348E+02  0.1882E+00
   1.6800001  0.1351E+02  0.1902E+00
   1.6899999  0.1353E+02  0.1923E+00
   1.6999999  0.1356E+02  0.1943E+00
   1.7100000  0.1359E+02  0.1964E+00
   1.7200000  0.1361E+02  0.1985E+00
   1.7300000  0.1364E+02  0.2007E+00
   1.7400000  0.1367E+02  0.2029E+00
   1.7500000  0.1369E+02  0.2050E+00
   1.7600000  0.1372E+02  0.2073E+00
   1.7699999  0.1375E+02  0.2095E+00
   1.7799999  0.1378E+02  0.2118E+00
   1.7900001  0.1380E+02  0.2141E+00
   1.8000001  0.1383E+02  0.2164E+00
   1.8100001  0.1386E+02  0.2188E+00
   1.8200001  0.1389E+02  0.2212E+00
   1.8300000  0.1392E+02  0.2236E+00
   1.8399999  0.1395E+02  0.2260E+00
   1.8499999  0.1398E+02  0.2285E+00
   1.8599999  0.1401E+02  0.2310E+00
   1.8699999  0.1404E+02  0.2336E+00
   1.8800001  0.1407E+02  0.2361E+00
   1.8900001  0.1411E+02  0.2388E+00
   1.9000000  0.1414E+02  0.2414E+00
   1.9100000  0.1417E+02  0.2441E+00
   1.9200000  0.1420E+02  0.2468E+00
   1.9299999  0.1424E+02  0.2496E+00
   1.9399999  0.1427E+02  0.2524E+00
   1.9499999  0.1430E+02  0.2552E+00
   1.9599999  0.1434E+02  0.2581E+00
   1.9700000  0.1437E+02  0.2610E+00
   1.9800000  0.1441E+02  0.2640E+00
   1.9900000  0.1444E+02  0.2670E+00
   2.0000000  0.1448E+02  0.2700E+00
   2.0100000  0.1451E+02  0.2731E+00
   2.0200000  0.1455E+02  0.2762E+00
   2.0300000  0.1459E+02  0.2794E+00
   2.0400000  0.1462E+02  0.2826E+00
   2.0500000  0.1466E+02  0.2859E+00
   2.0600002  0.1470E+02  0.2892E+00
   2.0700002  0.1474E+02  0.2926E+00
   2.0799999  0.1478E+02  0.2961E+00
   2.0899999  0.1482E+02  0.2995E+00
   2.0999999  0.1486E+02  0.3031E+00
   2.1099999  0.1490E+02  0.3067E+00
   2.1199999  0.1494E+02  0.3103E+00
   2.1299999  0.1498E+02  0.3140E+00
   2.1399999  0.1502E+02  0.3178E+00
   2.1500001  0.1506E+02  0.3216E+00
   2.1600001  0.1511E+02  0.3255E+00
   2.1700001  0.1515E+02  0.3295E+00
   2.1800001  0.1520E+02  0.3335E+00
   2.1900001  0.1524E+02  0.3376E+00
   2.2000000  0.1528E+02  0.3418E+00
   2.2100000  0.1533E+02  0.3460E+00
   2.2200000  0.1538E+02  0.3503E+00
   2.2300000  0.1542E+02  0.3547E+00
   2.2399998  0.1547E+02  0.3591E+00
   2.2500000  0.1552E+02  0.3637E+00
   2.2600000  0.1557E+02  0.3683E+00
   2.2700000  0.1562E+02  0.3730E+00
   2.2800000  0.1567E+02  0.3778E+00
   2.2900000  0.1572E+02  0.3827E+00
   2.3000000  0.1577E+02  0.3876E+00
   2.3099999  0.1582E+02  0.3927E+00
   2.3199999  0.1587E+02  0.3979E+00
   2.3299999  0.1593E+02  0.4031E+00
   2.3400002  0.1598E+02  0.4085E+00
   2.3500001  0.1603E+02  0.4140E+00
   2.3600001  0.1609E+02  0.4195E+00
   2.3699999  0.1615E+02  0.4252E+00
   2.3799999  0.1620E+02  0.4310E+00
   2.3899999  0.1626E+02  0.4369E+00
   2.3999999  0.1632E+02  0.4430E+00
   2.4099998  0.1638E+02  0.4491E+00
   2.4199998  0.1644E+02  0.4554E+00
   2.4300001  0.1650E+02  0.4619E+00
   2.4400001  0.1656E+02  0.4684E+00
   2.4500000  0.1662E+02  0.4751E+00
   2.4600000  0.1669E+02  0.4820E+00
   2.4700000  0.1675E+02  0.4890E+00
   2.4800000  0.1682E+02  0.4961E+00
   2.4900000  0.1688E+02  0.5035E+00
   2.5000000  0.1695E+02  0.5110E+00
   2.5100000  0.1702E+02  0.5186E+00
   2.5200000  0.1709E+02  0.5265E+00
   2.5300000  0.1716E+02  0.5345E+00
   2.5400000  0.1723E+02  0.5427E+00
   2.5500000  0.1730E+02  0.5511E+00
   2.5599999  0.1737E+02  0.5598E+00
   2.5699999  0.1745E+02  0.5686E+00
   2.5799999  0.1752E+02  0.5777E+00
   2.5899999  0.1760E+02  0.5870E+00
   2.5999999  0.1768E+02  0.5965E+00
   2.6100001  0.1776E+02  0.6063E+00
   2.6200001  0.1784E+02  0.6163E+00
   2.6300001  0.1792E+02  0.6267E+00
   2.6400001  0.1801E+02  0.6372E+00
   2.6500001  0.1809E+02  0.6481E+00
   2.6599998  0.1818E+02  0.6593E+00
   2.6699998  0.1826E+02  0.6708E+00
   2.6799998  0.1835E+02  0.6827E+00
   2.6899998  0.1844E+02  0.6949E+00
   2.7000000  0.1854E+02  0.7074E+00
   2.7100000  0.1863E+02  0.7204E+00
   2.7200000  0.1873E+02  0.7337E+00
   2.7300000  0.1883E+02  0.7474E+00
   2.7400000  0.1892E+02  0.7616E+00
   2.7500000  0.1903E+02  0.7762E+00
   2.7600000  0.1913E+02  0.7914E+00
   2.7700000  0.1923E+02  0.8070E+00
   2.7800000  0.1934E+02  0.8231E+00
   2.7900002  0.1945E+02  0.8398E+00
   2.8000000  0.1956E+02  0.8571E+00
   2.8099999  0.1968E+02  0.8750E+00
   2.8199999  0.1979E+02  0.8935E+00
   2.8299999  0.1991E+02  0.9128E+00
   2.8399999  0.2003E+02  0.9327E+00
   2.8499999  0.2016E+02  0.9534E+00
   2.8599999  0.2028E+02  0.9750E+00
   2.8699999  0.2041E+02  0.9974E+00
   2.8800001  0.2054E+02  0.1021E+01
   2.8900001  0.2068E+02  0.1045E+01
   2.9000001  0.2082E+02  0.1070E+01
   2.9100001  0.2096E+02  0.1097E+01
   2.9200001  0.2110E+02  0.1124E+01
   2.9300001  0.2125E+02  0.1153E+01
   2.9400001  0.2140E+02  0.1184E+01
   2.9499998  0.2156E+02  0.1215E+01
   2.9599998  0.2172E+02  0.1249E+01
   2.9699998  0.2188E+02  0.1284E+01
   2.9800000  0.2205E+02  0.1320E+01
   2.9900000  0.2223E+02  0.1359E+01
   3.0000000  0.2240E+02  0.1400E+01
   3.0100000  0.2259E+02  0.1444E+01
   3.0200000  0.2278E+02  0.1489E+01
   3.0300000  0.2297E+02  0.1538E+01
   3.0400000  0.2317E+02  0.1590E+01
   3.0500000  0.2338E+02  0.1645E+01
   3.0599999  0.2359E+02  0.1704E+01
   3.0700002  0.2381E+02  0.1767E+01
   3.0800002  0.2404E+02  0.1834E+01
   3.0899999  0.2427E+02  0.1907E+01
   3.0999999  0.2451E+02  0.1985E+01
   3.1099999  0.2476E+02  0.2070E+01
   3.1199999  0.2502E+02  0.2162E+01
   3.1299999  0.2529E+02  0.2263E+01
   3.1399999  0.2557E+02  0.2373E+01
   3.1499999  0.2586E+02  0.2494E+01
   3.1600001  0.2616E+02  0.2627E+01
   3.1700001  0.2647E+02  0.2775E+01
   3.1800001  0.2678E+02  0.2939E+01
   3.1900001  0.2711E+02  0.3121E+01
   3.2000000  0.2744E+02  0.3325E+01
   3.2100000  0.2778E+02  0.3552E+01
   3.2200000  0.2812E+02  0.3805E+01
   3.2300000  0.2845E+02  0.4083E+01
   3.2400000  0.2878E+02  0.4384E+01
   3.2500000  0.2909E+02  0.4705E+01
   3.2600000  0.2939E+02  0.5036E+01
   3.2700000  0.2967E+02  0.5368E+01
   3.2800000  0.2996E+02  0.5694E+01
   3.2900000  0.3026E+02  0.6016E+01
   3.3000000  0.3059E+02  0.6344E+01
   3.3099999  0.3096E+02  0.6696E+01
   3.3199999  0.3137E+02  0.7095E+01
   3.3299999  0.3181E+02  0.7563E+01
   3.3400002  0.3226E+02  0.8117E+01
   3.3500001  0.3271E+02  0.8771E+01
   3.3600001  0.3312E+02  0.9530E+01
   3.3700001  0.3347E+02  0.1039E+02
   3.3799999  0.3372E+02  0.1135E+02
   3.3899999  0.3385E+02  0.1239E+02
   3.3999999  0.3385E+02  0.1347E+02
   3.4100001  0.3369E+02  0.1457E+02
   3.4200001  0.3336E+02  0.1567E+02
   3.4300001  0.3287E+02  0.1672E+02
   3.4400001  0.3221E+02  0.1768E+02
   3.4500000  0.3140E+02  0.1851E+02
   3.4600000  0.3048E+02  0.1915E+02
   3.4700000  0.2951E+02  0.1958E+02
   3.4800000  0.2856E+02  0.1979E+02
   3.4900000  0.2768E+02  0.1981E+02
   3.5000000  0.2694E+02  0.1966E+02
   3.5100000  0.2637E+02  0.1943E+02
   3.5200000  0.2596E+02  0.1918E+02
   3.5300000  0.2570E+02  0.1897E+02
   3.5399997  0.2551E+02  0.1881E+02
   3.5499997  0.2538E+02  0.1871E+02
   3.5599997  0.2529E+02  0.1864E+02
   3.5700002  0.2521E+02  0.1861E+02
   3.5800002  0.2518E+02  0.1860E+02
   3.5900002  0.2519E+02  0.1862E+02
   3.6000001  0.2524E+02  0.1869E+02
   3.6100001  0.2533E+02  0.1884E+02
   3.6200001  0.2544E+02  0.1909E+02
   3.6300001  0.2552E+02  0.1948E+02
   3.6400001  0.2550E+02  0.1999E+02
   3.6500001  0.2532E+02  0.2061E+02
   3.6600001  0.2491E+02  0.2124E+02
   3.6699998  0.2427E+02  0.2177E+02
   3.6799998  0.2343E+02  0.2210E+02
   3.6899998  0.2253E+02  0.2213E+02
   3.6999998  0.2169E+02  0.2187E+02
   3.7099998  0.2105E+02  0.2139E+02
   3.7199998  0.2066E+02  0.2079E+02
   3.7299998  0.2051E+02  0.2020E+02
   3.7399998  0.2057E+02  0.1971E+02
   3.7500002  0.2074E+02  0.1936E+02
   3.7600002  0.2096E+02  0.1916E+02
   3.7700002  0.2117E+02  0.1910E+02
   3.7800002  0.2133E+02  0.1913E+02
   3.7900002  0.2141E+02  0.1924E+02
   3.8000000  0.2139E+02  0.1935E+02
   3.8099999  0.2128E+02  0.1943E+02
   3.8199999  0.2112E+02  0.1944E+02
   3.8299999  0.2095E+02  0.1937E+02
   3.8399999  0.2080E+02  0.1921E+02
   3.8499999  0.2069E+02  0.1899E+02
   3.8599999  0.2063E+02  0.1872E+02
   3.8699999  0.2063E+02  0.1839E+02
   3.8799999  0.2072E+02  0.1799E+02
   3.8899999  0.2093E+02  0.1756E+02
   3.8999999  0.2130E+02  0.1713E+02
   3.9099998  0.2183E+02  0.1676E+02
   3.9199998  0.2249E+02  0.1651E+02
   3.9299998  0.2325E+02  0.1640E+02
   3.9400001  0.2405E+02  0.1648E+02
   3.9500000  0.2485E+02  0.1673E+02
   3.9600000  0.2557E+02  0.1714E+02
   3.9700000  0.2619E+02  0.1767E+02
   3.9800000  0.2666E+02  0.1826E+02
   3.9900000  0.2701E+02  0.1885E+02
   4.0000000  0.2725E+02  0.1938E+02
   4.0100002  0.2747E+02  0.1982E+02
   4.0200000  0.2772E+02  0.2018E+02
   4.0299997  0.2805E+02  0.2050E+02
   4.0400000  0.2848E+02  0.2084E+02
   4.0499997  0.2901E+02  0.2125E+02
   4.0599999  0.2960E+02  0.2178E+02
   4.0699997  0.3023E+02  0.2245E+02
   4.0799999  0.3083E+02  0.2330E+02
   4.0899997  0.3136E+02  0.2430E+02
   4.0999999  0.3176E+02  0.2544E+02
   4.1099997  0.3201E+02  0.2668E+02
   4.1200004  0.3208E+02  0.2797E+02
   4.1300001  0.3196E+02  0.2927E+02
   4.1400003  0.3165E+02  0.3052E+02
   4.1500001  0.3115E+02  0.3167E+02
   4.1599998  0.3051E+02  0.3263E+02
   4.1700001  0.2983E+02  0.3334E+02
   4.1799998  0.2923E+02  0.3380E+02
   4.1900001  0.2885E+02  0.3408E+02
   4.1999998  0.2877E+02  0.3432E+02
   4.2100000  0.2899E+02  0.3467E+02
   4.2199998  0.2943E+02  0.3530E+02
   4.2300000  0.2997E+02  0.3628E+02
   4.2399998  0.3046E+02  0.3765E+02
   4.2500000  0.3074E+02  0.3940E+02
   4.2599998  0.3069E+02  0.4143E+02
   4.2700000  0.3023E+02  0.4363E+02
   4.2799997  0.2930E+02  0.4587E+02
   4.2900000  0.2793E+02  0.4800E+02
   4.3000002  0.2617E+02  0.4993E+02
   4.3099999  0.2410E+02  0.5156E+02
   4.3200002  0.2180E+02  0.5285E+02
   4.3299999  0.1936E+02  0.5376E+02
   4.3400002  0.1686E+02  0.5429E+02
   4.3499999  0.1438E+02  0.5444E+02
   4.3600001  0.1202E+02  0.5421E+02
   4.3699999  0.9875E+01  0.5367E+02
   4.3800001  0.8028E+01  0.5289E+02
   4.3899999  0.6531E+01  0.5200E+02
   4.4000001  0.5375E+01  0.5114E+02
   4.4099998  0.4480E+01  0.5046E+02
   4.4200001  0.3709E+01  0.5004E+02
   4.4299998  0.2892E+01  0.4988E+02
   4.4400001  0.1876E+01  0.4990E+02
   4.4499998  0.5656E+00  0.4996E+02
   4.4600000 -0.1039E+01  0.4986E+02
   4.4699998 -0.2843E+01  0.4945E+02
   4.4799995 -0.4677E+01  0.4865E+02
   4.4900002 -0.6362E+01  0.4747E+02
   4.5000000 -0.7763E+01  0.4602E+02
   4.5100002 -0.8824E+01  0.4443E+02
   4.5200000 -0.9559E+01  0.4283E+02
   4.5300002 -0.1002E+02  0.4131E+02
   4.5400000 -0.1029E+02  0.3991E+02
   4.5500002 -0.1042E+02  0.3866E+02
   4.5599999 -0.1045E+02  0.3753E+02
   4.5700002 -0.1042E+02  0.3653E+02
   4.5799999 -0.1034E+02  0.3565E+02
   4.5900002 -0.1025E+02  0.3491E+02
   4.5999999 -0.1018E+02  0.3430E+02
   4.6099997 -0.1020E+02  0.3380E+02
   4.6199999 -0.1036E+02  0.3336E+02
   4.6299996 -0.1066E+02  0.3289E+02
   4.6399999 -0.1107E+02  0.3229E+02
   4.6499996 -0.1152E+02  0.3151E+02
   4.6599998 -0.1190E+02  0.3054E+02
   4.6700001 -0.1210E+02  0.2943E+02
   4.6800003 -0.1209E+02  0.2826E+02
   4.6900001 -0.1188E+02  0.2714E+02
   4.7000003 -0.1150E+02  0.2611E+02
   4.7100000 -0.1102E+02  0.2522E+02
   4.7200003 -0.1048E+02  0.2446E+02
   4.7300000 -0.9933E+01  0.2382E+02
   4.7399998 -0.9398E+01  0.2326E+02
   4.7500000 -0.8891E+01  0.2277E+02
   4.7599998 -0.8410E+01  0.2230E+02
   4.7700000 -0.7932E+01  0.2181E+02
   4.7799997 -0.7417E+01  0.2131E+02
   4.7900000 -0.6826E+01  0.2081E+02
   4.7999997 -0.6138E+01  0.2035E+02
   4.8099999 -0.5354E+01  0.1995E+02
   4.8199997 -0.4497E+01  0.1966E+02
   4.8299999 -0.3591E+01  0.1949E+02
   4.8399997 -0.2653E+01  0.1942E+02
   4.8500004 -0.1688E+01  0.1947E+02
   4.8600001 -0.6949E+00  0.1964E+02
   4.8699999  0.3254E+00  0.1994E+02
   4.8800001  0.1361E+01  0.2041E+02
   4.8899999  0.2383E+01  0.2108E+02
   4.9000001  0.3349E+01  0.2196E+02
   4.9099998  0.4198E+01  0.2307E+02
   4.9200001  0.4864E+01  0.2438E+02
   4.9299998  0.5280E+01  0.2587E+02
   4.9400001  0.5400E+01  0.2745E+02
   4.9499998  0.5212E+01  0.2903E+02
   4.9600000  0.4744E+01  0.3054E+02
   4.9699998  0.4051E+01  0.3192E+02
   4.9800000  0.3192E+01  0.3314E+02
   4.9899998  0.2218E+01  0.3421E+02
   5.0000000  0.1169E+01  0.3513E+02
   5.0099998  0.7691E-01  0.3594E+02
   5.0200000 -0.1045E+01  0.3666E+02
   5.0300002 -0.2210E+01  0.3733E+02
   5.0400000 -0.3461E+01  0.3797E+02
   5.0500002 -0.4851E+01  0.3856E+02
   5.0599999 -0.6411E+01  0.3904E+02
   5.0700002 -0.8128E+01  0.3933E+02
   5.0799999 -0.9948E+01  0.3937E+02
   5.0900002 -0.1180E+02  0.3914E+02
   5.0999999 -0.1362E+02  0.3865E+02
   5.1100001 -0.1538E+02  0.3793E+02
   5.1199999 -0.1705E+02  0.3698E+02
   5.1300001 -0.1861E+02  0.3582E+02
   5.1399999 -0.2001E+02  0.3443E+02
   5.1500001 -0.2120E+02  0.3282E+02
   5.1599998 -0.2211E+02  0.3103E+02
   5.1700001 -0.2269E+02  0.2914E+02
   5.1799998 -0.2291E+02  0.2725E+02
   5.1899996 -0.2277E+02  0.2544E+02
   5.1999998 -0.2234E+02  0.2382E+02
   5.2099996 -0.2167E+02  0.2245E+02
   5.2200003 -0.2086E+02  0.2137E+02
   5.2300000 -0.2000E+02  0.2058E+02
   5.2400002 -0.1915E+02  0.2008E+02
   5.2500000 -0.1840E+02  0.1984E+02
   5.2600002 -0.1782E+02  0.1981E+02
   5.2700000 -0.1745E+02  0.1991E+02
   5.2800002 -0.1733E+02  0.2005E+02
   5.2900000 -0.1743E+02  0.2014E+02
   5.3000002 -0.1771E+02  0.2008E+02
   5.3099999 -0.1805E+02  0.1985E+02
   5.3199997 -0.1838E+02  0.1943E+02
   5.3299999 -0.1863E+02  0.1889E+02
   5.3399997 -0.1876E+02  0.1829E+02
   5.3499999 -0.1878E+02  0.1770E+02
   5.3599997 -0.1874E+02  0.1714E+02
   5.3699999 -0.1866E+02  0.1664E+02
   5.3799996 -0.1860E+02  0.1618E+02
   5.3899999 -0.1856E+02  0.1571E+02
   5.4000001 -0.1853E+02  0.1522E+02
   5.4100003 -0.1848E+02  0.1468E+02
   5.4200001 -0.1839E+02  0.1412E+02
   5.4300003 -0.1825E+02  0.1354E+02
   5.4400001 -0.1805E+02  0.1296E+02
   5.4499998 -0.1778E+02  0.1240E+02
   5.4600000 -0.1747E+02  0.1186E+02
   5.4699998 -0.1711E+02  0.1138E+02
   5.4800000 -0.1671E+02  0.1093E+02
   5.4899998 -0.1630E+02  0.1054E+02
   5.5000000 -0.1589E+02  0.1019E+02
   5.5099998 -0.1547E+02  0.9868E+01
   5.5200000 -0.1503E+02  0.9572E+01
   5.5299997 -0.1459E+02  0.9299E+01
   5.5400000 -0.1411E+02  0.9057E+01
   5.5499997 -0.1360E+02  0.8859E+01
   5.5599999 -0.1307E+02  0.8722E+01
   5.5699997 -0.1252E+02  0.8659E+01
   5.5800004 -0.1197E+02  0.8683E+01
   5.5900002 -0.1144E+02  0.8802E+01
   5.5999999 -0.1096E+02  0.9016E+01
   5.6100001 -0.1055E+02  0.9317E+01
   5.6199999 -0.1025E+02  0.9688E+01
   5.6300001 -0.1007E+02  0.1010E+02
   5.6399999 -0.1004E+02  0.1051E+02
   5.6500001 -0.1014E+02  0.1089E+02
   5.6599998 -0.1036E+02  0.1117E+02
   5.6700001 -0.1066E+02  0.1133E+02
   5.6799998 -0.1098E+02  0.1136E+02
   5.6900001 -0.1130E+02  0.1126E+02
   5.6999998 -0.1156E+02  0.1107E+02
   5.7100000 -0.1175E+02  0.1080E+02
   5.7199998 -0.1188E+02  0.1051E+02
   5.7300000 -0.1195E+02  0.1019E+02
   5.7399998 -0.1197E+02  0.9850E+01
   5.7500000 -0.1195E+02  0.9497E+01
   5.7600002 -0.1186E+02  0.9128E+01
   5.7700000 -0.1170E+02  0.8760E+01
   5.7800002 -0.1147E+02  0.8413E+01
   5.7900000 -0.1118E+02  0.8113E+01
   5.8000002 -0.1084E+02  0.7874E+01
   5.8099999 -0.1047E+02  0.7708E+01
   5.8200002 -0.1009E+02  0.7614E+01
   5.8299999 -0.9732E+01  0.7587E+01
   5.8400002 -0.9402E+01  0.7617E+01
   5.8499999 -0.9114E+01  0.7688E+01
   5.8600001 -0.8872E+01  0.7783E+01
   5.8699999 -0.8675E+01  0.7886E+01
   5.8800001 -0.8512E+01  0.7982E+01
   5.8899999 -0.8371E+01  0.8063E+01
   5.8999996 -0.8236E+01  0.8132E+01
   5.9099998 -0.8093E+01  0.8197E+01
   5.9199996 -0.7940E+01  0.8277E+01
   5.9299998 -0.7787E+01  0.8388E+01
   5.9399996 -0.7651E+01  0.8538E+01
   5.9500003 -0.7556E+01  0.8726E+01
   5.9600000 -0.7523E+01  0.8937E+01
   5.9700003 -0.7566E+01  0.9143E+01
   5.9800000 -0.7684E+01  0.9312E+01
   5.9900002 -0.7857E+01  0.9413E+01
   6.0000000 -0.8055E+01  0.9427E+01
   6.0100002 -0.8241E+01  0.9349E+01
   6.0200000 -0.8377E+01  0.9194E+01
   6.0300002 -0.8441E+01  0.8990E+01
   6.0400000 -0.8420E+01  0.8769E+01
   6.0499997 -0.8319E+01  0.8566E+01
   6.0599999 -0.8153E+01  0.8405E+01
   6.0699997 -0.7941E+01  0.8307E+01
   6.0799999 -0.7710E+01  0.8281E+01
   6.0899997 -0.7485E+01  0.8330E+01
   6.0999999 -0.7290E+01  0.8449E+01
   6.1099997 -0.7150E+01  0.8625E+01
   6.1199999 -0.7085E+01  0.8836E+01
   6.1300001 -0.7107E+01  0.9051E+01
   6.1400003 -0.7213E+01  0.9233E+01
   6.1500001 -0.7381E+01  0.9349E+01
   6.1600003 -0.7574E+01  0.9380E+01
   6.1700001 -0.7753E+01  0.9331E+01
   6.1799998 -0.7891E+01  0.9225E+01
   6.1900001 -0.7976E+01  0.9088E+01
   6.1999998 -0.8013E+01  0.8945E+01
   6.2100000 -0.8011E+01  0.8809E+01
   6.2199998 -0.7983E+01  0.8689E+01
   6.2300000 -0.7940E+01  0.8585E+01
   6.2399998 -0.7888E+01  0.8493E+01
   6.2500000 -0.7830E+01  0.8409E+01
   6.2599998 -0.7762E+01  0.8329E+01
   6.2700000 -0.7681E+01  0.8255E+01
   6.2799997 -0.7585E+01  0.8193E+01
   6.2900000 -0.7478E+01  0.8150E+01
   6.2999997 -0.7368E+01  0.8130E+01
   6.3099999 -0.7265E+01  0.8131E+01
   6.3200002 -0.7175E+01  0.8146E+01
   6.3299999 -0.7099E+01  0.8164E+01
   6.3400002 -0.7031E+01  0.8177E+01
   6.3499999 -0.6962E+01  0.8179E+01
   6.3600001 -0.6880E+01  0.8175E+01
   6.3699999 -0.6774E+01  0.8173E+01
   6.3800001 -0.6644E+01  0.8189E+01
   6.3899999 -0.6494E+01  0.8237E+01
   6.4000001 -0.6337E+01  0.8327E+01
   6.4099998 -0.6187E+01  0.8461E+01
   6.4200001 -0.6059E+01  0.8636E+01
   6.4299998 -0.5961E+01  0.8846E+01
   6.4400001 -0.5901E+01  0.9083E+01
   6.4499998 -0.5883E+01  0.9337E+01
   6.4600000 -0.5909E+01  0.9599E+01
   6.4699998 -0.5976E+01  0.9857E+01
   6.4800000 -0.6077E+01  0.1010E+02
   6.4899998 -0.6200E+01  0.1034E+02
   6.5000000 -0.6336E+01  0.1058E+02
   6.5100002 -0.6489E+01  0.1083E+02
   6.5200000 -0.6680E+01  0.1112E+02
   6.5300002 -0.6939E+01  0.1143E+02
   6.5400000 -0.7298E+01  0.1175E+02
   6.5500002 -0.7776E+01  0.1203E+02
   6.5599999 -0.8371E+01  0.1223E+02
   6.5700002 -0.9047E+01  0.1229E+02
   6.5799999 -0.9747E+01  0.1217E+02
   6.5900002 -0.1040E+02  0.1190E+02
   6.5999999 -0.1097E+02  0.1150E+02
   6.6100001 -0.1142E+02  0.1103E+02
   6.6199999 -0.1177E+02  0.1053E+02
   6.6299996 -0.1204E+02  0.1003E+02
   6.6399999 -0.1224E+02  0.9524E+01
   6.6499996 -0.1240E+02  0.9018E+01
   6.6599998 -0.1250E+02  0.8506E+01
   6.6699996 -0.1254E+02  0.7989E+01
   6.6800003 -0.1252E+02  0.7478E+01
   6.6900001 -0.1244E+02  0.6981E+01
   6.7000003 -0.1231E+02  0.6509E+01
   6.7100000 -0.1212E+02  0.6072E+01
   6.7200003 -0.1188E+02  0.5678E+01
   6.7300000 -0.1161E+02  0.5335E+01
   6.7400002 -0.1131E+02  0.5049E+01
   6.7500000 -0.1099E+02  0.4820E+01
   6.7599998 -0.1068E+02  0.4650E+01
   6.7700000 -0.1038E+02  0.4535E+01
   6.7799997 -0.1009E+02  0.4470E+01
   6.7900000 -0.9843E+01  0.4446E+01
   6.7999997 -0.9633E+01  0.4453E+01
   6.8100004 -0.9468E+01  0.4474E+01
   6.8200002 -0.9348E+01  0.4493E+01
   6.8300004 -0.9263E+01  0.4495E+01
   6.8400002 -0.9199E+01  0.4469E+01
   6.8500004 -0.9141E+01  0.4416E+01
   6.8600001 -0.9074E+01  0.4338E+01
   6.8700004 -0.8992E+01  0.4246E+01
   6.8800001 -0.8890E+01  0.4148E+01
   6.8899999 -0.8769E+01  0.4052E+01
   6.9000001 -0.8629E+01  0.3966E+01
   6.9099998 -0.8475E+01  0.3894E+01
   6.9200001 -0.8311E+01  0.3840E+01
   6.9299998 -0.8140E+01  0.3805E+01
   6.9400001 -0.7967E+01  0.3792E+01
   6.9499998 -0.7793E+01  0.3801E+01
   6.9600000 -0.7623E+01  0.3834E+01
   6.9699998 -0.7462E+01  0.3895E+01
   6.9800000 -0.7317E+01  0.3983E+01
   6.9899998 -0.7197E+01  0.4099E+01
   7.0000000 -0.7115E+01  0.4235E+01
